"770from1 - RawData"
"Wavelength nm.","T%"
190.00, 
192.00, 
194.00, 
196.00, 
198.00, 
200.00, 
202.00, 
204.00, 
206.00, 
208.00, 
210.00, 
212.00, 
214.00, 
216.00, 
218.00, 
220.00, 
222.00, 
224.00, 
226.00, 
228.00, 
230.00, 
232.00, 
234.00, 
236.00, 
238.00, 
240.00, 
242.00, 
244.00, 
246.00, 
248.00, 
250.00, 
252.00, 
254.00, 
256.00, 
258.00, 
260.00, 
262.00, 
264.00, 
266.00, 
268.00, 
270.00, 
272.00, 
274.00, 
276.00, 
278.00, 
280.00, 
282.00, 
284.00, 
286.00, 
288.00, 
290.00, 
292.00, 
294.00, 
296.00, 
298.00, 
300.00,0.0300
302.00,0.0302
304.00,0.0301
306.00,0.0304
308.00,0.0300
310.00,0.0303
312.00,0.0298
314.00,0.0300
316.00,0.0303
318.00,0.0312
320.00,0.0316
322.00,0.0320
324.00,0.0321
326.00,0.0323
328.00,0.0326
330.00,0.0333
332.00,0.0338
334.00,0.0345
336.00,0.0350
338.00,0.0346
340.00,0.0351
342.00,0.0351
344.00,0.0367
346.00,0.0367
348.00,0.0377
350.00,0.0378
352.00,0.0389
354.00,0.0391
356.00,0.0397
358.00,0.0390
360.00,0.0387
362.00,0.0386
364.00,0.0392
366.00,0.0400
368.00,0.0412
370.00,0.0417
372.00,0.0424
374.00,0.0416
376.00,0.0415
378.00,0.0408
380.00,0.0408
382.00,0.0403
384.00,0.0403
386.00,0.0410
388.00,0.0412
390.00,0.0405
392.00,0.0407
394.00,0.0401
396.00,0.0404
398.00,0.0400
400.00,0.0412
402.00,0.0415
404.00,0.0414
406.00,0.0415
408.00,0.0424
410.00,0.0424
412.00,0.0426
414.00,0.0421
416.00,0.0411
418.00,0.0406
420.00,0.0395
422.00,0.0396
424.00,0.0394
426.00,0.0399
428.00,0.0403
430.00,0.0405
432.00,0.0411
434.00,0.0412
436.00,0.0415
438.00,0.0418
440.00,0.0425
442.00,0.0430
444.00,0.0430
446.00,0.0431
448.00,0.0430
450.00,0.0427
452.00,0.0424
454.00,0.0418
456.00,0.0423
458.00,0.0418
460.00,0.0419
462.00,0.0418
464.00,0.0428
466.00,0.0439
468.00,0.0448
470.00,0.0449
472.00,0.0445
474.00,0.0441
476.00,0.0433
478.00,0.0431
480.00,0.0434
482.00,0.0437
484.00,0.0439
486.00,0.0431
488.00,0.0434
490.00,0.0431
492.00,0.0435
494.00,0.0434
496.00,0.0438
498.00,0.0446
500.00,0.0458
502.00,0.0460
504.00,0.0456
506.00,0.0452
508.00,0.0457
510.00,0.0460
512.00,0.0461
514.00,0.0452
516.00,0.0444
518.00,0.0432
520.00,0.0434
522.00,0.0439
524.00,0.0450
526.00,0.0460
528.00,0.0467
530.00,0.0467
532.00,0.0466
534.00,0.0463
536.00,0.0462
538.00,0.0457
540.00,0.0455
542.00,0.0462
544.00,0.0464
546.00,0.0468
548.00,0.0460
550.00,0.0455
552.00,0.0447
554.00,0.0444
556.00,0.0441
558.00,0.0443
560.00,0.0440
562.00,0.0442
564.00,0.0440
566.00,0.0445
568.00,0.0445
570.00,0.0450
572.00,0.0448
574.00,0.0445
576.00,0.0445
578.00,0.0451
580.00,0.0453
582.00,0.0456
584.00,0.0454
586.00,0.0459
588.00,0.0453
590.00,0.0448
592.00,0.0443
594.00,0.0446
596.00,0.0446
598.00,0.0444
600.00,0.0444
602.00,0.0456
604.00,0.0462
606.00,0.0464
608.00,0.0455
610.00,0.0447
612.00,0.0443
614.00,0.0447
616.00,0.0448
618.00,0.0450
620.00,0.0449
622.00,0.0455
624.00,0.0448
626.00,0.0448
628.00,0.0446
630.00,0.0456
632.00,0.0459
634.00,0.0468
636.00,0.0463
638.00,0.0464
640.00,0.0453
642.00,0.0462
644.00,0.0464
646.00,0.0473
648.00,0.0467
650.00,0.0467
652.00,0.0465
654.00,0.0467
656.00,0.0473
658.00,0.0477
660.00,0.0482
662.00,0.0477
664.00,0.0474
666.00,0.0470
668.00,0.0471
670.00,0.0479
672.00,0.0499
674.00,0.0547
676.00,0.0627
678.00,0.0740
680.00,0.0852
682.00,0.0921
684.00,0.0907
686.00,0.0822
688.00,0.0712
690.00,0.0618
692.00,0.0563
694.00,0.0538
696.00,0.0537
698.00,0.0547
700.00,0.0567
702.00,0.0610
704.00,0.0688
706.00,0.0870
708.00,0.1248
710.00,0.2049
712.00,0.3855
714.00,0.8465
716.00,1.9575
718.00,4.3535
720.00,8.6941
722.00,14.6861
724.00,21.4302
726.00,27.5314
728.00,32.1333
730.00,34.9447
732.00,36.4050
734.00,37.3780
736.00,38.4512
738.00,39.7236
740.00,40.9300
742.00,41.8031
744.00,42.2047
746.00,42.2150
748.00,41.9777
750.00,41.6786
752.00,41.4481
754.00,41.3808
756.00,41.4934
758.00,41.7500
760.00,42.0844
762.00,42.4028
764.00,42.6517
766.00,42.8133
768.00,42.9213
770.00,43.0035
772.00,43.0831
774.00,43.1671
776.00,43.2420
778.00,43.2623
780.00,43.1935
782.00,43.0354
784.00,42.8184
786.00,42.5985
788.00,42.4525
790.00,42.4366
792.00,42.5826
794.00,42.8113
796.00,43.0338
798.00,43.1153
800.00,42.9828
802.00,42.5911
804.00,41.9764
806.00,41.2385
808.00,40.5163
810.00,39.9768
812.00,39.7577
814.00,39.9131
816.00,40.2584
818.00,40.3404
820.00,39.5946
822.00,37.4676
824.00,33.6693
826.00,28.3373
828.00,22.0501
830.00,15.2896
832.00,9.3789
834.00,5.0694
836.00,2.7029
838.00,1.3809
840.00,0.7142
842.00,0.3950
844.00,0.2405
846.00,0.1660
848.00,0.1285
850.00,0.1062
852.00,0.0935
854.00,0.0863
856.00,0.0845
858.00,0.0810
860.00,0.0805
862.00,0.0783
864.00,0.0785
866.00,0.0749
868.00,0.0745
870.00,0.0739
872.00,0.0747
874.00,0.0733
876.00,0.0735
878.00,0.0705
880.00,0.0707
882.00,0.0688
884.00,0.0713
886.00,0.0725
888.00,0.0743
890.00,0.0754
892.00,0.0757
894.00,0.0754
896.00,0.0750
898.00,0.0728
900.00,0.0718
902.00,0.0710
904.00,0.0723
906.00,0.0731
908.00,0.0718
910.00,0.0710
912.00,0.0712
914.00,0.0720
916.00,0.0732
918.00,0.0718
920.00,0.0714
922.00,0.0706
924.00,0.0712
926.00,0.0715
928.00,0.0715
930.00,0.0714
932.00,0.0713
934.00,0.0710
936.00,0.0716
938.00,0.0718
940.00,0.0724
942.00,0.0721
944.00,0.0731
946.00,0.0765
948.00,0.0830
950.00,0.0915
952.00,0.0984
954.00,0.0999
956.00,0.0964
958.00,0.0892
960.00,0.0815
962.00,0.0759
964.00,0.0725
966.00,0.0729
968.00,0.0728
970.00,0.0727
972.00,0.0721
974.00,0.0719
976.00,0.0720
978.00,0.0717
980.00,0.0716
982.00,0.0716
984.00,0.0714
986.00,0.0716
988.00,0.0716
990.00,0.0717
992.00,0.0717
994.00,0.0710
996.00,0.0707
998.00,0.0706
1000.00,0.0710
1002.00,0.0716
1004.00,0.0715
1006.00,0.0717
1008.00,0.0714
1010.00,0.0716
1012.00,0.0717
1014.00,0.0718
1016.00,0.0720
1018.00,0.0718
1020.00,0.0717
1022.00,0.0715
1024.00,0.0712
1026.00,0.0712
1028.00,0.0712
1030.00,0.0716
1032.00,0.0719
1034.00,0.0720
1036.00,0.0720
1038.00,0.0716
1040.00,0.0716
1042.00,0.0721
1044.00,0.0721
1046.00,0.0722
1048.00,0.0717
1050.00,0.0721
1052.00,0.0723
1054.00,0.0723
1056.00,0.0725
1058.00,0.0724
1060.00,0.0727
1062.00,0.0725
1064.00,0.0726
1066.00,0.0726
1068.00,0.0727
1070.00,0.0727
1072.00,0.0730
1074.00,0.0733
1076.00,0.0734
1078.00,0.0737
1080.00,0.0739
1082.00,0.0746
1084.00,0.0752
1086.00,0.0759
1088.00,0.0775
1090.00,0.0800
1092.00,0.0861
1094.00,0.0992
1096.00,0.1196
1098.00,0.1454
1100.00,0.1679
1102.00,0.1799
1104.00,0.1762
1106.00,0.1592
1108.00,0.1372
1110.00,0.1183
1112.00,0.1060
1114.00,0.0998
1116.00,0.0974
1118.00,0.0973
1120.00,0.0988
1122.00,0.1019
1124.00,0.1061
1126.00,0.1113
1128.00,0.1168
1130.00,0.1229
1132.00,0.1291
1134.00,0.1354
1136.00,0.1407
1138.00,0.1449
1140.00,0.1483
1142.00,0.1523
1144.00,0.1582
1146.00,0.1667
1148.00,0.1798
1150.00,0.2001
1152.00,0.2320
1154.00,0.2804
1156.00,0.3511
1158.00,0.4434
1160.00,0.5466
1162.00,0.6378
1164.00,0.6911
1166.00,0.6917
1168.00,0.6434
1170.00,0.5648
1172.00,0.4794
1174.00,0.4045
1176.00,0.3492
1178.00,0.3133
1180.00,0.2930
1182.00,0.2841
1184.00,0.2842
1186.00,0.2925
1188.00,0.3088
1190.00,0.3338
1192.00,0.3687
1194.00,0.4152
1196.00,0.4756
1198.00,0.5531
1200.00,0.6486
1202.00,0.7629
1204.00,0.8962
1206.00,1.0471
1208.00,1.2132
1210.00,1.3882
1212.00,1.5774
1214.00,1.7811
1216.00,2.0157
1218.00,2.2971
1220.00,2.6553
1222.00,3.1232
1224.00,3.7691
1226.00,4.6569
1228.00,5.8947
1230.00,7.5206
1232.00,9.6183
1234.00,12.0689
1236.00,14.7117
1238.00,17.1758
1240.00,19.1633
1242.00,20.4494
1244.00,21.0693
1246.00,21.2551
1248.00,21.3275
1250.00,21.5757
1252.00,22.2104
1254.00,23.3272
1256.00,24.9630
1258.00,27.0314
1260.00,29.3774
1262.00,31.6726
1264.00,33.5840
1266.00,34.7824
1268.00,35.1063
1270.00,34.5471
1272.00,33.2851
1274.00,31.6228
1276.00,29.8411
1278.00,28.1919
1280.00,26.8204
1282.00,25.8062
1284.00,25.1176
1286.00,24.6599
1288.00,24.3149
1290.00,23.9694
1292.00,23.5244
1294.00,22.9079
1296.00,22.0862
1298.00,21.1117
1300.00,20.0105
1302.00,18.8380
1304.00,17.6145
1306.00,16.4419
1308.00,15.4112
1310.00,14.6207
1312.00,14.0973
1314.00,13.8431
1316.00,13.8330
1318.00,14.0871
1320.00,14.6378
1322.00,15.5224
1324.00,16.7776
1326.00,18.4312
1328.00,20.5460
1330.00,23.1333
1332.00,26.1545
1334.00,29.3883
1336.00,32.5125
1338.00,35.1534
1340.00,37.0371
1342.00,37.9807
1344.00,37.9200
1346.00,36.9270
1348.00,35.2679
1350.00,33.2583
1352.00,31.2178
1354.00,29.3532
1356.00,27.7958
1358.00,26.5993
1360.00,25.7761
1362.00,25.3298
1364.00,25.2428
1366.00,25.4926
1368.00,26.0449
1370.00,26.8633
1372.00,27.8861
1374.00,29.0602
1376.00,30.3479
1378.00,31.7294
1380.00,33.1957
1382.00,34.6954
1384.00,36.1542
1386.00,37.4858
1388.00,38.6337
1390.00,39.6064
1392.00,40.4369
1394.00,41.1622
1396.00,41.7758
1398.00,42.2747
1400.00,42.6392
1402.00,42.8502
1404.00,42.8784
1406.00,42.6912
1408.00,42.2668
1410.00,41.5657
1412.00,40.5582
1414.00,39.2434
1416.00,37.6883
1418.00,35.9576
1420.00,34.1401
1422.00,32.3036
1424.00,30.5045
1426.00,28.8011
1428.00,27.2560
1430.00,25.9318
1432.00,24.8222
1434.00,23.9061
1436.00,23.1866
1438.00,22.6669
1440.00,22.3320
1442.00,22.1547
1444.00,22.1122
1446.00,22.1808
1448.00,22.3378
1450.00,22.5543
1452.00,22.8035
1454.00,23.0440
1456.00,23.2453
1458.00,23.3642
1460.00,23.3736
1462.00,23.2577
1464.00,23.0051
1466.00,22.6265
1468.00,22.1396
1470.00,21.5916
1472.00,21.0134
1474.00,20.4339
1476.00,19.8654
1478.00,19.3364
1480.00,18.8720
1482.00,18.4993
1484.00,18.2287
1486.00,18.0689
1488.00,18.0238
1490.00,18.1041
1492.00,18.3191
1494.00,18.6726
1496.00,19.1604
1498.00,19.7747
1500.00,20.5122
1502.00,21.3629
1504.00,22.3165
1506.00,23.3409
1508.00,24.3754
1510.00,25.3593
1512.00,26.2541
1514.00,27.0260
1516.00,27.6337
1518.00,28.0216
1520.00,28.1704
1522.00,28.0736
1524.00,27.7649
1526.00,27.2791
1528.00,26.6691
1530.00,25.9720
1532.00,25.2533
1534.00,24.5631
1536.00,23.9602
1538.00,23.4591
1540.00,23.0742
1542.00,22.8076
1544.00,22.6767
1546.00,22.6916
1548.00,22.8578
1550.00,23.1805
1552.00,23.6537
1554.00,24.2850
1556.00,25.0738
1558.00,26.0307
1560.00,27.1409
1562.00,28.3926
1564.00,29.7623
1566.00,31.2360
1568.00,32.7764
1570.00,34.3377
1572.00,35.8351
1574.00,37.2166
1576.00,38.4184
1578.00,39.4247
1580.00,40.2145
1582.00,40.7949
1584.00,41.1678
1586.00,41.3360
1588.00,41.3220
1590.00,41.1587
1592.00,40.8957
1594.00,40.5765
1596.00,40.2543
1598.00,39.9663
1600.00,39.7496
1602.00,39.6139
1604.00,39.5735
1606.00,39.6386
1608.00,39.8085
1610.00,40.0801
1612.00,40.4336
1614.00,40.8606
1616.00,41.3285
1618.00,41.8182
1620.00,42.2936
1622.00,42.7362
1624.00,43.1074
1626.00,43.3716
1628.00,43.4924
1630.00,43.4508
1632.00,43.2597
1634.00,42.9316
1636.00,42.4826
1638.00,41.9268
1640.00,41.2843
1642.00,40.6080
1644.00,39.9114
1646.00,39.2414
1648.00,38.5834
1650.00,36.8611
1652.00,35.6385
1654.00,34.2026
1656.00,33.5581
1658.00,32.8994
1660.00,32.7552
1662.00,33.1189
1664.00,33.2782
1666.00,33.4897
1668.00,33.9255
1670.00,34.5299
1672.00,34.8931
1674.00,35.3316
1676.00,35.6890
1678.00,36.6269
1680.00,37.2612
1682.00,37.3998
1684.00,37.2860
1686.00,37.1272
1688.00,37.5293
1690.00,37.3981
1692.00,37.3315
1694.00,36.9559
1696.00,36.0913
1698.00,35.2554
1700.00,34.3358
1702.00,34.2603
1704.00,33.4484
1706.00,32.3117
1708.00,30.7866
1710.00,29.8496
1712.00,29.1683
1714.00,28.3695
1716.00,27.7789
1718.00,27.3770
1720.00,26.7981
1722.00,26.1027
1724.00,25.4102
1726.00,25.4154
1728.00,25.4330
1730.00,25.4485
1732.00,25.5794
1734.00,25.6908
1736.00,25.7610
1738.00,26.2914
1740.00,26.6269
1742.00,27.3937
1744.00,27.6237
1746.00,28.5986
1748.00,28.9445
1750.00,29.9906
1752.00,30.1896
1754.00,30.7760
1756.00,30.5554
1758.00,31.2485
1760.00,32.0955
1762.00,32.6158
1764.00,32.1419
1766.00,31.9115
1768.00,31.7306
1770.00,31.6137
1772.00,30.9882
1774.00,31.4235
1776.00,31.1697
1778.00,30.9720
1780.00,29.8898
1782.00,29.6506
1784.00,29.2540
1786.00,28.9369
1788.00,28.6239
1790.00,28.5246
1792.00,28.0357
1794.00,27.8052
1796.00,27.2915
1798.00,26.8275
1800.00,26.6647
1802.00,27.0606
1804.00,27.7611
1806.00,28.4756
1808.00,28.6010
1810.00,29.4196
1812.00,29.4575
1814.00,29.9846
1816.00,30.2783
1818.00,31.0469
1820.00,31.5463
1822.00,32.0861
1824.00,32.9898
1826.00,33.8074
1828.00,34.7103
1830.00,35.5766
1832.00,36.0070
1834.00,36.0429
1836.00,35.9138
1838.00,36.4300
1840.00,37.1651
1842.00,37.3363
1844.00,37.3868
1846.00,36.8960
1848.00,36.3776
1850.00,36.2948
1852.00,36.7558
1854.00,36.6394
1856.00,36.0432
1858.00,35.3410
1860.00,35.1547
1862.00,35.2867
1864.00,34.7621
1866.00,34.8536
1868.00,34.6190
1870.00,34.3625
1872.00,33.6267
1874.00,33.0109
1876.00,32.7614
1878.00,33.0721
1880.00,33.3563
1882.00,33.2930
1884.00,32.8435
1886.00,33.0236
1888.00,33.8265
1890.00,34.5308
1892.00,34.8162
1894.00,34.7905
1896.00,35.0582
1898.00,35.1847
1900.00,35.6101
1902.00,35.9698
1904.00,36.5959
1906.00,37.0890
1908.00,37.5014
1910.00,37.8915
1912.00,38.0521
1914.00,38.1500
1916.00,38.2697
1918.00,38.9613
1920.00,39.5082
1922.00,39.1479
1924.00,38.8923
1926.00,38.7785
1928.00,39.6707
1930.00,39.2164
1932.00,38.9767
1934.00,37.6626
1936.00,37.6665
1938.00,37.4964
1940.00,37.6955
1942.00,37.5576
1944.00,37.2145
1946.00,36.9773
1948.00,36.2474
1950.00,36.0738
1952.00,35.7337
1954.00,35.8760
1956.00,35.3418
1958.00,34.7116
1960.00,34.9478
1962.00,34.9714
1964.00,35.5753
1966.00,35.5899
1968.00,35.7340
1970.00,35.7648
1972.00,35.4899
1974.00,36.2047
1976.00,36.9607
1978.00,36.7956
1980.00,36.1566
1982.00,35.4394
1984.00,35.9953
1986.00,36.1248
1988.00,36.6781
1990.00,36.8192
1992.00,37.2462
1994.00,36.4367
1996.00,36.6955
1998.00,36.6109
2000.00,37.7697
2002.00,36.7543
2004.00,36.6495
2006.00,35.6657
2008.00,35.8163
2010.00,35.1860
2012.00,34.9688
2014.00,34.3810
2016.00,34.6242
2018.00,34.3149
2020.00,34.6631
2022.00,34.1845
2024.00,34.5606
2026.00,34.2136
2028.00,34.0936
2030.00,33.1828
2032.00,31.9968
2034.00,31.7888
2036.00,30.9191
2038.00,30.8813
2040.00,30.2947
2042.00,30.4492
2044.00,30.8039
2046.00,30.9786
2048.00,30.9849
2050.00,31.0100
2052.00,30.6592
2054.00,30.9208
2056.00,30.2757
2058.00,29.8792
2060.00,29.7485
2062.00,30.7307
2064.00,30.8854
2066.00,30.7353
2068.00,30.9749
2070.00,31.5794
2072.00,31.8209
2074.00,31.6830
2076.00,32.6245
2078.00,33.3026
2080.00,33.8485
2082.00,33.6452
2084.00,33.4049
2086.00,33.0257
2088.00,33.5496
2090.00,34.5388
2092.00,35.1364
2094.00,34.5586
2096.00,34.4735
2098.00,34.5835
2100.00,34.8953
2102.00,35.4386
2104.00,35.1023
2106.00,35.3347
2108.00,34.9412
2110.00,34.3087
2112.00,33.8950
2114.00,32.7163
2116.00,32.9453
2118.00,31.9285
2120.00,31.6947
2122.00,31.3433
2124.00,31.1857
2126.00,31.9213
2128.00,32.1044
2130.00,31.8958
2132.00,30.7248
2134.00,30.2396
2136.00,30.5532
2138.00,30.2716
2140.00,29.6185
2142.00,28.6784
2144.00,28.0470
2146.00,28.0750
2148.00,28.3603
2150.00,29.4065
2152.00,28.0135
2154.00,28.0047
2156.00,27.9507
2158.00,29.5036
2160.00,29.7539
2162.00,29.9245
2164.00,29.0240
2166.00,28.7484
2168.00,27.8279
2170.00,28.4423
2172.00,29.1771
2174.00,30.1113
2176.00,31.1690
2178.00,30.9658
2180.00,32.2173
2182.00,32.5545
2184.00,32.3931
2186.00,31.0400
2188.00,31.1240
2190.00,32.4127
2192.00,33.3727
2194.00,33.3732
2196.00,32.8449
2198.00,33.7716
2200.00,33.3970
2202.00,34.1110
2204.00,33.8861
2206.00,35.1512
2208.00,34.9154
2210.00,35.6092
2212.00,34.6905
2214.00,35.0093
2216.00,34.2337
2218.00,34.8694
2220.00,34.5828
2222.00,34.5842
2224.00,34.2014
2226.00,34.0937
2228.00,33.0912
2230.00,32.4481
2232.00,32.2790
2234.00,32.3349
2236.00,31.3344
2238.00,30.4467
2240.00,30.3999
2242.00,31.9771
2244.00,31.7815
2246.00,31.9356
2248.00,30.8415
2250.00,31.2277
2252.00,30.7413
2254.00,30.8133
2256.00,29.9853
2258.00,29.2574
2260.00,29.0628
2262.00,29.5340
2264.00,29.6372
2266.00,29.6197
2268.00,28.8380
2270.00,28.8383
2272.00,28.4072
2274.00,29.4771
2276.00,29.7561
2278.00,29.7624
2280.00,29.3571
2282.00,29.7677
2284.00,29.6334
2286.00,29.9674
2288.00,30.7776
2290.00,31.3558
2292.00,31.5436
2294.00,30.5128
2296.00,31.3517
2298.00,31.1130
2300.00,31.7800
2302.00,31.8998
2304.00,33.8120
2306.00,35.1216
2308.00,35.2844
2310.00,34.7589
2312.00,34.9923
2314.00,36.4877
2316.00,36.7023
2318.00,35.7320
2320.00,34.9163
2322.00,35.3817
2324.00,35.8820
2326.00,36.1468
2328.00,36.0306
2330.00,37.0442
2332.00,37.5382
2334.00,38.1762
2336.00,37.1901
2338.00,35.9680
2340.00,34.8932
2342.00,33.9458
2344.00,33.3990
2346.00,34.1270
2348.00,35.5217
2350.00,36.8519
2352.00,36.7723
2354.00,36.6911
2356.00,36.5461
2358.00,34.9412
2360.00,33.5528
2362.00,33.1235
2364.00,34.3932
2366.00,35.3463
2368.00,35.4807
2370.00,36.0320
2372.00,35.4604
2374.00,34.9644
2376.00,34.8817
2378.00,34.0317
2380.00,34.9788
2382.00,33.4562
2384.00,33.8068
2386.00,32.0830
2388.00,33.2966
2390.00,33.5264
2392.00,33.4514
2394.00,32.5635
2396.00,33.1098
2398.00,34.8490
2400.00,33.5410
2402.00,32.4400
2404.00,30.5098
2406.00,30.9061
2408.00,31.0008
2410.00,31.8872
2412.00,33.0724
2414.00,34.6001
2416.00,34.3334
2418.00,34.7788
2420.00,33.3932
2422.00,34.3781
2424.00,33.8808
2426.00,34.8291
2428.00,34.7570
2430.00,37.3084
2432.00,37.4085
2434.00,38.5084
2436.00,35.9679
2438.00,36.3322
2440.00,35.7026
2442.00,36.7076
2444.00,36.7199
2446.00,37.5196
2448.00,38.1392
2450.00,38.1829
2452.00,36.9423
2454.00,37.2166
2456.00,36.0814
2458.00,37.3931
2460.00,36.5241
2462.00,38.4030
2464.00,36.9065
2466.00,37.4500
2468.00,37.7212
2470.00,36.8403
2472.00,34.7193
2474.00,33.2178
2476.00,35.2597
2478.00,35.0205
2480.00,33.9884
2482.00,33.7693
2484.00,34.4972
2486.00,34.3288
2488.00,33.6347
2490.00,35.2895
2492.00,36.2049
2494.00,36.5380
2496.00,35.4097
2498.00,34.6762
2500.00,33.1234
2502.00,32.2816
2504.00,33.2465
2506.00,33.3104
2508.00,32.2777
2510.00,30.8421
2512.00,32.4440
2514.00,33.1176
2516.00,33.6217
2518.00,32.0001
2520.00,31.4897
2522.00,32.1763
2524.00,32.0709
2526.00,32.0810
2528.00,30.6618
2530.00,30.9721
2532.00,31.2075
2534.00,31.9029
2536.00,32.1805
2538.00,32.0003
2540.00,32.0131
2542.00,30.8831
2544.00,30.7421
2546.00,30.6472
2548.00,32.0933
2550.00,33.2372
2552.00,34.2125
2554.00,33.2450
2556.00,32.8007
2558.00,31.3004
2560.00,31.7097
2562.00,30.9838
2564.00,32.1270
2566.00,31.9049
2568.00,33.5277
2570.00,34.5357
2572.00,35.7518
2574.00,35.2697
2576.00,35.3842
2578.00,34.9322
2580.00,35.7138
2582.00,35.4888
2584.00,34.6234
2586.00,34.3348
2588.00,35.5150
2590.00,38.1532
2592.00,38.1305
2594.00,38.7990
2596.00,39.4715
2598.00,40.3255
2600.00,37.9972
2602.00,36.3840
2604.00,35.9059
2606.00,36.5914
2608.00,37.4661
2610.00,34.5154
2612.00,33.9571
2614.00,32.9156
2616.00,36.5068
2618.00,36.8813
2620.00,36.6744
2622.00,35.0654
2624.00,34.7127
2626.00,34.5697
2628.00,34.8501
2630.00,34.5237
2632.00,33.7181
2634.00,33.4574
2636.00,34.6947
2638.00,35.8259
2640.00,35.7331
2642.00,34.4561
2644.00,33.8680
2646.00,33.8576
2648.00,33.1496
2650.00,33.4994
2652.00,32.2883
2654.00,32.5719
2656.00,31.6686
2658.00,32.5612
2660.00,31.2511
2662.00,30.7583
2664.00,29.2309
2666.00,28.9394
2668.00,28.3937
2670.00,28.9625
2672.00,29.6015
2674.00,28.7772
2676.00,27.6519
2678.00,26.6113
2680.00,27.2655
2682.00,27.6005
2684.00,27.0526
2686.00,26.1974
2688.00,28.0577
2690.00,29.5202
2692.00,29.0983
2694.00,29.0946
2696.00,26.8822
2698.00,24.8819
2700.00,21.9842
2702.00,22.0297
2704.00,21.5544
2706.00,21.9936
2708.00,21.0213
2710.00,20.9060
2712.00,19.9143
2714.00,19.8910
2716.00,18.1608
2718.00,17.6959
2720.00,16.4002
2722.00,15.1441
2724.00,13.2956
2726.00,13.1206
2728.00,12.8048
2730.00,12.7073
2732.00,12.3725
2734.00,12.2253
2736.00,11.9715
2738.00,11.5309
2740.00,10.5281
2742.00,9.8195
2744.00,9.3852
2746.00,8.5417
2748.00,7.3591
2750.00,7.2181
2752.00,7.7578
2754.00,7.4820
2756.00,7.8604
2758.00,7.6143
2760.00,7.9593
2762.00,7.9019
2764.00,8.1219
2766.00,8.5458
2768.00,8.9697
2770.00,9.1275
2772.00,8.4518
2774.00,8.1491
2776.00,7.8742
2778.00,7.6699
2780.00,6.9227
2782.00,7.9688
2784.00,8.2124
2786.00,8.4157
2788.00,9.2894
2790.00,9.6342
2792.00,9.1739
2794.00,9.5861
2796.00,9.6308
2798.00,9.4478
2800.00,9.4242
2802.00,9.5365
2804.00,8.8892
2806.00,8.6568
2808.00,8.1331
2810.00,8.4150
2812.00,8.8034
2814.00,9.9386
2816.00,10.1643
2818.00,10.8709
2820.00,11.4216
2822.00,10.8741
2824.00,11.3534
2826.00,10.8747
2828.00,10.9181
2830.00,10.6756
2832.00,11.3464
2834.00,10.6201
2836.00,11.2469
2838.00,10.8003
2840.00,11.0080
2842.00,11.5287
2844.00,11.6591
2846.00,11.0994
2848.00,11.3432
2850.00,11.5680
2852.00,11.0140
2854.00,11.2694
2856.00,11.2071
2858.00,11.2600
2860.00,10.5424
2862.00,10.9243
2864.00,10.9366
2866.00,11.5341
2868.00,11.9784
2870.00,12.4897
2872.00,12.3475
2874.00,12.0116
2876.00,12.3738
2878.00,11.7734
2880.00,12.2536
2882.00,11.9650
2884.00,11.8921
2886.00,11.4557
2888.00,11.9770
2890.00,11.6643
2892.00,12.3902
2894.00,12.8780
2896.00,13.8653
2898.00,14.1156
2900.00,14.9491
2902.00,14.9516
2904.00,15.0661
2906.00,15.1347
2908.00,15.0831
2910.00,14.9496
2912.00,15.3028
2914.00,15.6916
2916.00,15.6341
2918.00,16.6498
2920.00,16.3692
2922.00,16.4118
2924.00,16.1767
2926.00,16.8036
2928.00,16.9809
2930.00,17.3642
2932.00,17.0084
2934.00,17.6323
2936.00,17.5656
2938.00,16.9750
2940.00,17.5971
2942.00,17.8356
2944.00,17.0832
2946.00,17.5130
2948.00,19.0957
2950.00,18.5781
2952.00,19.0246
2954.00,20.7548
2956.00,20.3086
2958.00,19.7835
2960.00,19.7061
2962.00,20.4249
2964.00,20.0820
2966.00,21.2957
2968.00,21.7743
2970.00,21.2338
2972.00,22.0275
2974.00,21.2944
2976.00,20.1647
2978.00,19.9214
2980.00,21.1040
2982.00,20.6839
2984.00,21.1099
2986.00,23.0756
2988.00,22.1372
2990.00,21.6093
2992.00,21.0913
2994.00,21.3610
2996.00,19.9595
2998.00,20.6070
3000.00,21.3645
3002.00, 
3004.00, 
3006.00, 
3008.00, 
3010.00, 
3012.00, 
3014.00, 
3016.00, 
3018.00, 
3020.00, 
3022.00, 
3024.00, 
3026.00, 
3028.00, 
3030.00, 
3032.00, 
3034.00, 
3036.00, 
3038.00, 
3040.00, 
3042.00, 
3044.00, 
3046.00, 
3048.00, 
3050.00, 
3052.00, 
3054.00, 
3056.00, 
3058.00, 
3060.00, 
3062.00, 
3064.00, 
3066.00, 
3068.00, 
3070.00, 
3072.00, 
3074.00, 
3076.00, 
3078.00, 
3080.00, 
3082.00, 
3084.00, 
3086.00, 
3088.00, 
3090.00, 
3092.00, 
3094.00, 
3096.00, 
3098.00, 
3100.00, 
3102.00, 
3104.00, 
3106.00, 
3108.00, 
3110.00, 
3112.00, 
3114.00, 
3116.00, 
3118.00, 
3120.00, 
3122.00, 
3124.00, 
3126.00, 
3128.00, 
3130.00, 
3132.00, 
3134.00, 
3136.00, 
3138.00, 
3140.00, 
3142.00, 
3144.00, 
3146.00, 
3148.00, 
3150.00, 
3152.00, 
3154.00, 
3156.00, 
3158.00, 
3160.00, 
3162.00, 
3164.00, 
3166.00, 
3168.00, 
3170.00, 
3172.00, 
3174.00, 
3176.00, 
3178.00, 
3180.00, 
3182.00, 
3184.00, 
3186.00, 
3188.00, 
3190.00, 
3192.00, 
3194.00, 
3196.00, 
3198.00, 
3200.00, 
3202.00, 
3204.00, 
3206.00, 
3208.00, 
3210.00, 
3212.00, 
3214.00, 
3216.00, 
3218.00, 
3220.00, 
3222.00, 
3224.00, 
3226.00, 
3228.00, 
3230.00, 
3232.00, 
3234.00, 
3236.00, 
3238.00, 
3240.00, 
3242.00, 
3244.00, 
3246.00, 
3248.00, 
3250.00, 
3252.00, 
3254.00, 
3256.00, 
3258.00, 
3260.00, 
3262.00, 
3264.00, 
3266.00, 
3268.00, 
3270.00, 
3272.00, 
3274.00, 
3276.00, 
3278.00, 
3280.00, 
3282.00, 
3284.00, 
3286.00, 
3288.00, 
3290.00, 
3292.00, 
3294.00, 
3296.00, 
3298.00, 
3300.00, 
