"holder - RawData"
"Wavelength nm.","T%"
190.00,57.3779
192.00,57.3371
194.00,57.2557
196.00,57.1034
198.00,56.9523
200.00,56.7807
202.00,56.6185
204.00,56.4628
206.00,56.3065
208.00,56.1683
210.00,56.0265
212.00,55.8841
214.00,55.7502
216.00,55.6033
218.00,55.5317
220.00,55.4504
222.00,55.3833
224.00,55.2913
226.00,55.2081
228.00,55.1514
230.00,55.1072
232.00,55.0610
234.00,55.0264
236.00,54.9790
238.00,54.9424
240.00,54.8990
242.00,54.8649
244.00,54.8347
246.00,54.8188
248.00,54.7969
250.00,54.7876
252.00,54.7696
254.00,54.7787
256.00,54.7857
258.00,54.7982
260.00,54.7921
262.00,54.7677
264.00,54.7516
266.00,54.7470
268.00,54.7638
270.00,54.7674
272.00,54.7680
274.00,54.7693
276.00,54.7830
278.00,54.7860
280.00,54.7883
282.00,54.7705
284.00,54.7634
286.00,54.7494
288.00,54.7385
290.00,54.7289
292.00,54.7433
294.00,52.6036
296.00,50.4718
298.00,48.3278
300.00,48.3709
302.00,48.3877
304.00,48.3921
306.00,48.3703
308.00,48.3297
310.00,48.2755
312.00,48.2454
314.00,48.2625
316.00,48.3058
318.00,48.3307
320.00,48.3588
322.00,48.3842
324.00,48.4105
326.00,48.4143
328.00,48.4160
330.00,48.4163
332.00,48.4050
334.00,48.4235
336.00,48.4503
338.00,48.4873
340.00,48.4944
342.00,48.4862
344.00,48.4805
346.00,48.4599
348.00,48.4464
350.00,48.4244
352.00,48.4107
354.00,48.4029
356.00,48.3963
358.00,48.4002
360.00,48.4330
362.00,48.4747
364.00,48.5187
366.00,48.5647
368.00,48.6158
370.00,48.6487
372.00,48.6554
374.00,48.6476
376.00,48.6454
378.00,48.6282
380.00,48.6094
382.00,48.6046
384.00,48.6113
386.00,48.6178
388.00,48.6274
390.00,48.6357
392.00,48.6477
394.00,48.6573
396.00,48.6586
398.00,48.6653
400.00,48.6587
402.00,48.6566
404.00,48.6544
406.00,48.6515
408.00,48.6251
410.00,48.5885
412.00,48.5361
414.00,48.4982
416.00,48.4787
418.00,48.4845
420.00,48.5414
422.00,48.5981
424.00,48.6642
426.00,48.6796
428.00,48.6994
430.00,48.7142
432.00,48.7297
434.00,48.7372
436.00,48.7471
438.00,48.7664
440.00,48.7895
442.00,48.7940
444.00,48.8116
446.00,48.8359
448.00,48.8684
450.00,48.8870
452.00,48.9093
454.00,48.9510
456.00,49.0096
458.00,49.0678
460.00,49.1390
462.00,49.1960
464.00,49.2045
466.00,49.1010
468.00,48.8707
470.00,48.5380
472.00,48.1411
474.00,47.7636
476.00,47.5066
478.00,47.4256
480.00,47.4851
482.00,47.6185
484.00,47.7724
486.00,47.9284
488.00,48.0493
490.00,48.1552
492.00,48.2415
494.00,48.3222
496.00,48.3855
498.00,48.4365
500.00,48.4779
502.00,48.5134
504.00,48.5460
506.00,48.5649
508.00,48.5899
510.00,48.6189
512.00,48.6542
514.00,48.6826
516.00,48.7006
518.00,48.7100
520.00,48.7075
522.00,48.7101
524.00,48.7156
526.00,48.7324
528.00,48.7589
530.00,48.7720
532.00,48.7715
534.00,48.7621
536.00,48.7691
538.00,48.7735
540.00,48.7794
542.00,48.7852
544.00,48.7709
546.00,48.7714
548.00,48.7627
550.00,48.7683
552.00,48.7471
554.00,48.7299
556.00,48.7055
558.00,48.6752
560.00,48.6302
562.00,48.5928
564.00,48.5539
566.00,48.5201
568.00,48.4846
570.00,48.4480
572.00,48.4287
574.00,48.4311
576.00,48.4559
578.00,48.5005
580.00,48.5511
582.00,48.6206
584.00,48.6822
586.00,48.7436
588.00,48.7936
590.00,48.8479
592.00,48.8953
594.00,48.9391
596.00,48.9679
598.00,48.9931
600.00,49.0098
602.00,49.0164
604.00,49.0089
606.00,49.0102
608.00,49.0196
610.00,49.0209
612.00,49.0224
614.00,49.0231
616.00,49.0277
618.00,49.0248
620.00,49.0264
622.00,49.0379
624.00,49.0434
626.00,49.0418
628.00,49.0359
630.00,49.0363
632.00,49.0333
634.00,49.0387
636.00,49.0389
638.00,49.0463
640.00,49.0412
642.00,49.0589
644.00,49.0812
646.00,49.1158
648.00,49.1437
650.00,49.1869
652.00,49.2440
654.00,49.3147
656.00,49.3551
658.00,49.3068
660.00,49.1170
662.00,48.8024
664.00,48.4212
666.00,47.9600
668.00,47.4967
670.00,47.1727
672.00,47.1266
674.00,47.2985
676.00,47.5474
678.00,47.7771
680.00,47.9720
682.00,48.1252
684.00,48.2382
686.00,48.3380
688.00,48.4184
690.00,48.4868
692.00,48.5219
694.00,48.5583
696.00,48.5940
698.00,48.6329
700.00,48.6539
702.00,48.6747
704.00,48.7032
706.00,48.7319
708.00,48.7429
710.00,48.7530
712.00,48.7672
714.00,48.7937
716.00,48.8120
718.00,48.8168
720.00,49.0616
722.00,49.2952
724.00,49.5333
726.00,49.5271
728.00,49.5266
730.00,49.5150
732.00,49.4953
734.00,49.4747
736.00,49.4725
738.00,49.4891
740.00,49.5039
742.00,49.5350
744.00,49.5651
746.00,49.6118
748.00,49.6559
750.00,49.7002
752.00,49.7443
754.00,49.7844
756.00,49.8236
758.00,49.8541
760.00,49.8942
762.00,49.9332
764.00,49.9767
766.00,50.0101
768.00,50.0424
770.00,50.0661
772.00,50.0923
774.00,50.1201
776.00,50.1446
778.00,50.1691
780.00,50.1903
782.00,50.2171
784.00,50.2366
786.00,50.2531
788.00,50.2726
790.00,50.2913
792.00,50.3067
794.00,50.3257
796.00,50.3426
798.00,50.3648
800.00,50.3749
802.00,50.3850
804.00,50.4014
806.00,50.4227
808.00,50.4412
810.00,50.4485
812.00,50.4538
814.00,50.4680
816.00,50.4740
818.00,50.4889
820.00,50.5074
822.00,50.5387
824.00,50.5642
826.00,50.5596
828.00,50.5588
830.00,50.9706
832.00,51.2446
834.00,51.6712
836.00,51.6703
838.00,51.6747
840.00,51.6817
842.00,51.7027
844.00,51.7280
846.00,51.7460
848.00,51.7601
850.00,51.7677
852.00,51.7714
854.00,51.7758
856.00,51.7887
858.00,51.7937
860.00,51.8086
862.00,51.8162
864.00,51.8374
866.00,51.8555
868.00,51.8915
870.00,51.9282
872.00,51.9565
874.00,51.9795
876.00,52.0021
878.00,52.0292
880.00,52.0448
882.00,52.0538
884.00,52.0614
886.00,52.0740
888.00,52.0922
890.00,52.1058
892.00,52.1206
894.00,52.1220
896.00,52.1274
898.00,52.1239
900.00,52.1291
902.00,52.1329
904.00,52.1309
906.00,52.1430
908.00,52.1591
910.00,52.1834
912.00,52.1994
914.00,52.2156
916.00,52.2228
918.00,52.2338
920.00,52.2478
922.00,52.2730
924.00,52.2946
926.00,52.3096
928.00,52.3241
930.00,52.3359
932.00,52.3487
934.00,52.3578
936.00,52.3649
938.00,52.3679
940.00,52.3729
942.00,52.3814
944.00,52.4005
946.00,52.4173
948.00,52.4365
950.00,52.4476
952.00,52.4645
954.00,52.4798
956.00,52.5026
958.00,52.5241
960.00,52.5416
962.00,52.5581
964.00,52.5752
966.00,52.5969
968.00,52.6197
970.00,52.6260
972.00,52.6259
974.00,52.6236
976.00,52.6266
978.00,52.6316
980.00,52.6297
982.00,52.6325
984.00,52.6318
986.00,52.6374
988.00,52.6464
990.00,52.6574
992.00,52.6605
994.00,52.6628
996.00,52.6701
998.00,52.6815
1000.00,52.6879
1002.00,52.6881
1004.00,52.6826
1006.00,52.6833
1008.00,52.6881
1010.00,52.7001
1012.00,52.7108
1014.00,52.7219
1016.00,52.7237
1018.00,52.7300
1020.00,52.7355
1022.00,52.7526
1024.00,52.7570
1026.00,52.7662
1028.00,52.7696
1030.00,52.7861
1032.00,52.7964
1034.00,52.8148
1036.00,52.8299
1038.00,52.8468
1040.00,52.8609
1042.00,52.8654
1044.00,52.8750
1046.00,52.8793
1048.00,52.8911
1050.00,52.9047
1052.00,52.9205
1054.00,52.9269
1056.00,52.9225
1058.00,52.9175
1060.00,52.9132
1062.00,52.9098
1064.00,52.9098
1066.00,52.9118
1068.00,52.9103
1070.00,52.8971
1072.00,52.8881
1074.00,52.8926
1076.00,52.9100
1078.00,52.9301
1080.00,52.9504
1082.00,52.9725
1084.00,52.9985
1086.00,53.0158
1088.00,53.0298
1090.00,53.0341
1092.00,53.0390
1094.00,53.0409
1096.00,53.0487
1098.00,53.0529
1100.00,53.0580
1102.00,53.0549
1104.00,53.0619
1106.00,53.0683
1108.00,53.0819
1110.00,53.0784
1112.00,53.0717
1114.00,53.0721
1116.00,53.0880
1118.00,53.1089
1120.00,53.1154
1122.00,53.1186
1124.00,53.1188
1126.00,53.1214
1128.00,53.1240
1130.00,53.1223
1132.00,53.1254
1134.00,53.1258
1136.00,53.1287
1138.00,53.1283
1140.00,53.1275
1142.00,53.1377
1144.00,53.1532
1146.00,53.1663
1148.00,53.1815
1150.00,53.1900
1152.00,53.2021
1154.00,53.2056
1156.00,53.2191
1158.00,53.2378
1160.00,53.2467
1162.00,53.2507
1164.00,53.2528
1166.00,53.2626
1168.00,53.2738
1170.00,53.2800
1172.00,53.2855
1174.00,53.2906
1176.00,53.2999
1178.00,53.3053
1180.00,53.3121
1182.00,53.3157
1184.00,53.3227
1186.00,53.3306
1188.00,53.3395
1190.00,53.3524
1192.00,53.3505
1194.00,53.3531
1196.00,53.3511
1198.00,53.3564
1200.00,53.3570
1202.00,53.3633
1204.00,53.3694
1206.00,53.3805
1208.00,53.3932
1210.00,53.4084
1212.00,53.4176
1214.00,53.4142
1216.00,53.4127
1218.00,53.4144
1220.00,53.4231
1222.00,53.4292
1224.00,53.4249
1226.00,53.4196
1228.00,53.4195
1230.00,53.4307
1232.00,53.4383
1234.00,53.4387
1236.00,53.4386
1238.00,53.4423
1240.00,53.4492
1242.00,53.4606
1244.00,53.4666
1246.00,53.4749
1248.00,53.4840
1250.00,53.5025
1252.00,53.5284
1254.00,53.5529
1256.00,53.5738
1258.00,53.5860
1260.00,53.5937
1262.00,53.5966
1264.00,53.6011
1266.00,53.5919
1268.00,53.5944
1270.00,53.5853
1272.00,53.5759
1274.00,53.5507
1276.00,53.5267
1278.00,53.5132
1280.00,53.5204
1282.00,53.5448
1284.00,53.5822
1286.00,53.6034
1288.00,53.6141
1290.00,53.6166
1292.00,53.6305
1294.00,53.6385
1296.00,53.6400
1298.00,53.6323
1300.00,53.6333
1302.00,53.6321
1304.00,53.6316
1306.00,53.6128
1308.00,53.5870
1310.00,53.5649
1312.00,53.5612
1314.00,53.5661
1316.00,53.5711
1318.00,53.5756
1320.00,53.5693
1322.00,53.5478
1324.00,53.5145
1326.00,53.4883
1328.00,53.4676
1330.00,53.4504
1332.00,53.4218
1334.00,53.3842
1336.00,53.3442
1338.00,53.3094
1340.00,53.2747
1342.00,53.2418
1344.00,53.2215
1346.00,53.2171
1348.00,53.2241
1350.00,53.2305
1352.00,53.2421
1354.00,53.2584
1356.00,53.2765
1358.00,53.2948
1360.00,53.3062
1362.00,53.3123
1364.00,53.3167
1366.00,53.3187
1368.00,53.3224
1370.00,53.3199
1372.00,53.3138
1374.00,53.3064
1376.00,53.3018
1378.00,53.2967
1380.00,53.2961
1382.00,53.3007
1384.00,53.3150
1386.00,53.3302
1388.00,53.3437
1390.00,53.3584
1392.00,53.3776
1394.00,53.3927
1396.00,53.4050
1398.00,53.4176
1400.00,53.4283
1402.00,53.4299
1404.00,53.4268
1406.00,53.4341
1408.00,53.4530
1410.00,53.4677
1412.00,53.4740
1414.00,53.4747
1416.00,53.4779
1418.00,53.4842
1420.00,53.4882
1422.00,53.4918
1424.00,53.4974
1426.00,53.5085
1428.00,53.5168
1430.00,53.5247
1432.00,53.5280
1434.00,53.5321
1436.00,53.5376
1438.00,53.5395
1440.00,53.5452
1442.00,53.5474
1444.00,53.5555
1446.00,53.5633
1448.00,53.5681
1450.00,53.5684
1452.00,53.5603
1454.00,53.5570
1456.00,53.5632
1458.00,53.5783
1460.00,53.5870
1462.00,53.5942
1464.00,53.6053
1466.00,53.6164
1468.00,53.6200
1470.00,53.6120
1472.00,53.6064
1474.00,53.6079
1476.00,53.6169
1478.00,53.6276
1480.00,53.6312
1482.00,53.6365
1484.00,53.6380
1486.00,53.6386
1488.00,53.6378
1490.00,53.6408
1492.00,53.6522
1494.00,53.6570
1496.00,53.6617
1498.00,53.6671
1500.00,53.6780
1502.00,53.6821
1504.00,53.6807
1506.00,53.6841
1508.00,53.6933
1510.00,53.7002
1512.00,53.7023
1514.00,53.7132
1516.00,53.7240
1518.00,53.7350
1520.00,53.7332
1522.00,53.7362
1524.00,53.7371
1526.00,53.7399
1528.00,53.7469
1530.00,53.7541
1532.00,53.7631
1534.00,53.7563
1536.00,53.7620
1538.00,53.7649
1540.00,53.7795
1542.00,53.7822
1544.00,53.7851
1546.00,53.7855
1548.00,53.7884
1550.00,53.7964
1552.00,53.7985
1554.00,53.7983
1556.00,53.8023
1558.00,53.8107
1560.00,53.8173
1562.00,53.8152
1564.00,53.8182
1566.00,53.8266
1568.00,53.8354
1570.00,53.8343
1572.00,53.8428
1574.00,53.8578
1576.00,53.8774
1578.00,53.8857
1580.00,53.8866
1582.00,53.8987
1584.00,53.9128
1586.00,53.9429
1588.00,53.9701
1590.00,54.0036
1592.00,54.0262
1594.00,54.0419
1596.00,54.0506
1598.00,54.0536
1600.00,54.0548
1602.00,54.0484
1604.00,54.0321
1606.00,54.0124
1608.00,53.9952
1610.00,53.9859
1612.00,53.9780
1614.00,53.9664
1616.00,53.9670
1618.00,53.9696
1620.00,53.9765
1622.00,53.9708
1624.00,53.9625
1626.00,53.9488
1628.00,53.9307
1630.00,53.9216
1632.00,53.9156
1634.00,53.9193
1636.00,53.9131
1638.00,53.9136
1640.00,53.9124
1642.00,53.9124
1644.00,53.9042
1646.00,53.8973
1648.00,53.8942
1650.00,53.3421
1652.00,52.4959
1654.00,51.8037
1656.00,51.7582
1658.00,51.9527
1660.00,51.6739
1662.00,52.0404
1664.00,52.2729
1666.00,52.7621
1668.00,52.4147
1670.00,52.5476
1672.00,52.3317
1674.00,52.3554
1676.00,52.3211
1678.00,52.4277
1680.00,52.4916
1682.00,52.4410
1684.00,52.4335
1686.00,52.4264
1688.00,52.4809
1690.00,52.3544
1692.00,52.3209
1694.00,52.5310
1696.00,52.8214
1698.00,52.8023
1700.00,52.4809
1702.00,52.0233
1704.00,52.1136
1706.00,51.6991
1708.00,52.0438
1710.00,51.6644
1712.00,51.9101
1714.00,51.4465
1716.00,51.6474
1718.00,52.0323
1720.00,52.4786
1722.00,52.5256
1724.00,51.8804
1726.00,51.7808
1728.00,51.7320
1730.00,51.3551
1732.00,51.2783
1734.00,51.2432
1736.00,51.6159
1738.00,51.6759
1740.00,51.5006
1742.00,51.8853
1744.00,52.3579
1746.00,52.3643
1748.00,52.3536
1750.00,52.4400
1752.00,52.5602
1754.00,52.3984
1756.00,51.5473
1758.00,51.8031
1760.00,51.4607
1762.00,52.0845
1764.00,51.6733
1766.00,51.8834
1768.00,51.3107
1770.00,51.2161
1772.00,51.3662
1774.00,51.2657
1776.00,51.4507
1778.00,51.1915
1780.00,51.4907
1782.00,51.4661
1784.00,51.9184
1786.00,52.1737
1788.00,52.2843
1790.00,52.0952
1792.00,51.8017
1794.00,51.3783
1796.00,51.7184
1798.00,51.5699
1800.00,51.4373
1802.00,51.4943
1804.00,51.6660
1806.00,52.1526
1808.00,51.3800
1810.00,51.3608
1812.00,51.4913
1814.00,51.6931
1816.00,51.6641
1818.00,52.0590
1820.00,52.6759
1822.00,52.6476
1824.00,52.3761
1826.00,52.1775
1828.00,52.6008
1830.00,53.2952
1832.00,53.3287
1834.00,53.1869
1836.00,52.7037
1838.00,52.6983
1840.00,53.0205
1842.00,52.8405
1844.00,52.8944
1846.00,52.4066
1848.00,51.8423
1850.00,50.9297
1852.00,51.5829
1854.00,52.2238
1856.00,52.9065
1858.00,52.4129
1860.00,52.0475
1862.00,52.2774
1864.00,52.2395
1866.00,52.2179
1868.00,52.7428
1870.00,52.3519
1872.00,52.9592
1874.00,51.6534
1876.00,51.8300
1878.00,51.5351
1880.00,51.4465
1882.00,51.6125
1884.00,51.0687
1886.00,51.4476
1888.00,51.1204
1890.00,51.1668
1892.00,50.7425
1894.00,51.2472
1896.00,51.3342
1898.00,51.5305
1900.00,51.7828
1902.00,51.7310
1904.00,51.7836
1906.00,50.9601
1908.00,50.9653
1910.00,51.3360
1912.00,51.6948
1914.00,51.4345
1916.00,51.1724
1918.00,51.1815
1920.00,51.4117
1922.00,51.0267
1924.00,50.6906
1926.00,51.2827
1928.00,51.8303
1930.00,51.7395
1932.00,51.3776
1934.00,51.2704
1936.00,51.2978
1938.00,50.9168
1940.00,50.8782
1942.00,51.2116
1944.00,51.7188
1946.00,52.2924
1948.00,51.8300
1950.00,51.6508
1952.00,51.2429
1954.00,51.9843
1956.00,52.0408
1958.00,51.9811
1960.00,51.1093
1962.00,50.8140
1964.00,50.3540
1966.00,51.3976
1968.00,52.4272
1970.00,53.0813
1972.00,51.9898
1974.00,51.5522
1976.00,52.2727
1978.00,52.6578
1980.00,52.0439
1982.00,50.7363
1984.00,51.1919
1986.00,51.3045
1988.00,51.8735
1990.00,51.7649
1992.00,52.0202
1994.00,52.1897
1996.00,51.6447
1998.00,51.1477
2000.00,50.2868
2002.00,51.3348
2004.00,52.0103
2006.00,52.7254
2008.00,51.9111
2010.00,51.7133
2012.00,51.4029
2014.00,51.3586
2016.00,50.6723
2018.00,50.0960
2020.00,50.1237
2022.00,50.8748
2024.00,51.3507
2026.00,51.3994
2028.00,51.7013
2030.00,51.3391
2032.00,51.4591
2034.00,50.3639
2036.00,50.4735
2038.00,49.8994
2040.00,50.6203
2042.00,50.9011
2044.00,50.7468
2046.00,50.2314
2048.00,49.5842
2050.00,50.5519
2052.00,51.8590
2054.00,52.7096
2056.00,52.1697
2058.00,51.9284
2060.00,52.2689
2062.00,52.9225
2064.00,52.3408
2066.00,51.4293
2068.00,50.6582
2070.00,50.5330
2072.00,52.2041
2074.00,52.8489
2076.00,53.6125
2078.00,52.3245
2080.00,52.6341
2082.00,52.2690
2084.00,51.9262
2086.00,51.5897
2088.00,50.2756
2090.00,50.5550
2092.00,50.2910
2094.00,51.5035
2096.00,51.4280
2098.00,50.9731
2100.00,50.6423
2102.00,50.0276
2104.00,50.9650
2106.00,50.3289
2108.00,51.1455
2110.00,50.9705
2112.00,52.0823
2114.00,52.1232
2116.00,51.8806
2118.00,51.5125
2120.00,51.1682
2122.00,50.9745
2124.00,51.2143
2126.00,51.7585
2128.00,51.8889
2130.00,51.8717
2132.00,51.6615
2134.00,51.4794
2136.00,50.6957
2138.00,51.0742
2140.00,52.0257
2142.00,52.8514
2144.00,52.6688
2146.00,51.5596
2148.00,50.9652
2150.00,51.1633
2152.00,51.2567
2154.00,50.9750
2156.00,51.1248
2158.00,51.8448
2160.00,52.8813
2162.00,52.1787
2164.00,50.7929
2166.00,51.1398
2168.00,51.3107
2170.00,52.2900
2172.00,51.8112
2174.00,52.6297
2176.00,52.2061
2178.00,52.3961
2180.00,51.6804
2182.00,50.9967
2184.00,50.9238
2186.00,52.3277
2188.00,53.1610
2190.00,52.6146
2192.00,51.5015
2194.00,52.0296
2196.00,52.1585
2198.00,51.5269
2200.00,51.3983
2202.00,49.9016
2204.00,49.6001
2206.00,49.4271
2208.00,51.2656
2210.00,52.3286
2212.00,53.0866
2214.00,52.8539
2216.00,53.0814
2218.00,51.9927
2220.00,52.1857
2222.00,51.6187
2224.00,52.4901
2226.00,53.5370
2228.00,52.5539
2230.00,52.4211
2232.00,51.6479
2234.00,52.5215
2236.00,52.3554
2238.00,52.0473
2240.00,51.7235
2242.00,50.9607
2244.00,50.9702
2246.00,49.9095
2248.00,50.4728
2250.00,50.9255
2252.00,50.9927
2254.00,51.0233
2256.00,49.5736
2258.00,50.6673
2260.00,49.9777
2262.00,49.6506
2264.00,49.6127
2266.00,49.0175
2268.00,50.0332
2270.00,49.9516
2272.00,51.2304
2274.00,50.7492
2276.00,49.9471
2278.00,48.4752
2280.00,48.2252
2282.00,49.0639
2284.00,49.9750
2286.00,50.5943
2288.00,49.2033
2290.00,49.9133
2292.00,50.3977
2294.00,51.5527
2296.00,50.4571
2298.00,51.0134
2300.00,50.1486
2302.00,50.2361
2304.00,49.5344
2306.00,50.9259
2308.00,50.8390
2310.00,50.7180
2312.00,49.8364
2314.00,50.6976
2316.00,49.4187
2318.00,50.9641
2320.00,50.6944
2322.00,52.5602
2324.00,51.2806
2326.00,52.0662
2328.00,50.7761
2330.00,51.1822
2332.00,51.2854
2334.00,51.9814
2336.00,51.3355
2338.00,50.3012
2340.00,50.6556
2342.00,51.9802
2344.00,51.8960
2346.00,50.6262
2348.00,51.7225
2350.00,52.9196
2352.00,53.3631
2354.00,50.5367
2356.00,49.5254
2358.00,50.1594
2360.00,52.4215
2362.00,52.3947
2364.00,52.6825
2366.00,51.9966
2368.00,51.3682
2370.00,51.9595
2372.00,51.7530
2374.00,52.2988
2376.00,50.2144
2378.00,49.5146
2380.00,50.1018
2382.00,51.7764
2384.00,51.6460
2386.00,52.3677
2388.00,52.1903
2390.00,53.0443
2392.00,52.0075
2394.00,52.7686
2396.00,52.6684
2398.00,53.2495
2400.00,50.9447
2402.00,51.1945
2404.00,50.4631
2406.00,50.0016
2408.00,50.2446
2410.00,50.0655
2412.00,49.9180
2414.00,47.7409
2416.00,47.6019
2418.00,47.7318
2420.00,49.7519
2422.00,51.4278
2424.00,53.2927
2426.00,53.6156
2428.00,52.5177
2430.00,50.6763
2432.00,50.2353
2434.00,49.4824
2436.00,50.1779
2438.00,50.7722
2440.00,52.2802
2442.00,52.8976
2444.00,52.7916
2446.00,51.0193
2448.00,50.5106
2450.00,47.8405
2452.00,49.3468
2454.00,49.6236
2456.00,51.1380
2458.00,52.0182
2460.00,50.7937
2462.00,50.5678
2464.00,50.5720
2466.00,52.0473
2468.00,52.6286
2470.00,50.7177
2472.00,52.3100
2474.00,51.4395
2476.00,51.4985
2478.00,49.5136
2480.00,50.1200
2482.00,50.3185
2484.00,50.8619
2486.00,50.4581
2488.00,49.9634
2490.00,49.8883
2492.00,49.5309
2494.00,51.7819
2496.00,50.9513
2498.00,51.0710
2500.00,49.3446
2502.00,49.7006
2504.00,51.2538
2506.00,50.9416
2508.00,50.7205
2510.00,50.0648
2512.00,50.9654
2514.00,52.0222
2516.00,51.8576
2518.00,50.9265
2520.00,49.8262
2522.00,50.8413
2524.00,51.0275
2526.00,51.7718
2528.00,50.4900
2530.00,50.9817
2532.00,50.6738
2534.00,51.5704
2536.00,52.0489
2538.00,52.5411
2540.00,52.3974
2542.00,52.5531
2544.00,52.8558
2546.00,52.6480
2548.00,50.6064
2550.00,49.8318
2552.00,49.1348
2554.00,50.2666
2556.00,52.9118
2558.00,54.4497
2560.00,54.2634
2562.00,51.5535
2564.00,50.3956
2566.00,50.3383
2568.00,47.7950
2570.00,47.1344
2572.00,47.4437
2574.00,49.2591
2576.00,51.4760
2578.00,51.5390
2580.00,51.8178
2582.00,50.6910
2584.00,51.9734
2586.00,52.3881
2588.00,51.8830
2590.00,50.7603
2592.00,52.7119
2594.00,52.4838
2596.00,56.1197
2598.00,54.5586
2600.00,55.1073
2602.00,49.8503
2604.00,50.8869
2606.00,50.9743
2608.00,52.0881
2610.00,51.3920
2612.00,52.8063
2614.00,53.0017
2616.00,53.0382
2618.00,52.3191
2620.00,52.6332
2622.00,51.4755
2624.00,49.8029
2626.00,50.8119
2628.00,49.1690
2630.00,49.7479
2632.00,49.3819
2634.00,51.8058
2636.00,51.4099
2638.00,50.3942
2640.00,51.0269
2642.00,51.8650
2644.00,53.1754
2646.00,52.5158
2648.00,52.2004
2650.00,51.6432
2652.00,51.2490
2654.00,51.3597
2656.00,50.6786
2658.00,51.6115
2660.00,50.9766
2662.00,49.7949
2664.00,50.8033
2666.00,53.1493
2668.00,57.4921
2670.00,56.3578
2672.00,55.4140
2674.00,51.9133
2676.00,52.8261
2678.00,53.9470
2680.00,56.2064
2682.00,54.2720
2684.00,52.6216
2686.00,51.3785
2688.00,52.2622
2690.00,54.1421
2692.00,54.1802
2694.00,54.0823
2696.00,52.5505
2698.00,48.4203
2700.00,47.8021
2702.00,49.1769
2704.00,49.4077
2706.00,52.0824
2708.00,52.3105
2710.00,51.4701
2712.00,51.6269
2714.00,50.9137
2716.00,50.4146
2718.00,50.3800
2720.00,50.4295
2722.00,50.8776
2724.00,50.9630
2726.00,51.1311
2728.00,50.7983
2730.00,51.6658
2732.00,51.5057
2734.00,51.8240
2736.00,51.3946
2738.00,51.5813
2740.00,51.1378
2742.00,50.9759
2744.00,50.5316
2746.00,50.5531
2748.00,50.2128
2750.00,51.2211
2752.00,51.7539
2754.00,51.7704
2756.00,51.2766
2758.00,51.5262
2760.00,50.6234
2762.00,50.1619
2764.00,50.7689
2766.00,52.3386
2768.00,53.3538
2770.00,53.8351
2772.00,53.4209
2774.00,52.5479
2776.00,52.0985
2778.00,51.7045
2780.00,50.6874
2782.00,51.3355
2784.00,50.9315
2786.00,51.0470
2788.00,51.6455
2790.00,52.8120
2792.00,52.9564
2794.00,53.1606
2796.00,52.4651
2798.00,51.7802
2800.00,51.9291
2802.00,51.6411
2804.00,53.3356
2806.00,52.8623
2808.00,52.9384
2810.00,51.8469
2812.00,51.1701
2814.00,49.9134
2816.00,50.7240
2818.00,50.5091
2820.00,50.8144
2822.00,50.9948
2824.00,50.7231
2826.00,51.0111
2828.00,51.1973
2830.00,51.1763
2832.00,51.9888
2834.00,51.6693
2836.00,50.9597
2838.00,51.5716
2840.00,51.4325
2842.00,50.0660
2844.00,50.2911
2846.00,50.7371
2848.00,50.3101
2850.00,50.3251
2852.00,51.8758
2854.00,52.7165
2856.00,51.7124
2858.00,51.8466
2860.00,52.2194
2862.00,50.8734
2864.00,50.2658
2866.00,50.5599
2868.00,50.2490
2870.00,49.5697
2872.00,51.2076
2874.00,51.1790
2876.00,51.5316
2878.00,50.6686
2880.00,51.4576
2882.00,49.9521
2884.00,50.2671
2886.00,51.2374
2888.00,51.9181
2890.00,51.6248
2892.00,52.2628
2894.00,52.0426
2896.00,51.0353
2898.00,51.2177
2900.00,51.0535
2902.00,51.1402
2904.00,52.1136
2906.00,51.6741
2908.00,50.8959
2910.00,51.2156
2912.00,51.2115
2914.00,50.1884
2916.00,51.2412
2918.00,52.8073
2920.00,52.0889
2922.00,51.6449
2924.00,52.0010
2926.00,51.5442
2928.00,50.5650
2930.00,50.4596
2932.00,50.8801
2934.00,50.3298
2936.00,50.2249
2938.00,50.0748
2940.00,51.5309
2942.00,51.7741
2944.00,51.0178
2946.00,51.0198
2948.00,50.5320
2950.00,50.5717
2952.00,50.0503
2954.00,51.7842
2956.00,51.0740
2958.00,51.1947
2960.00,50.5740
2962.00,50.6150
2964.00,50.0851
2966.00,51.1396
2968.00,52.4322
2970.00,53.0658
2972.00,53.3570
2974.00,54.6526
2976.00,54.5286
2978.00,54.3750
2980.00,53.9617
2982.00,53.9135
2984.00,53.9617
2986.00,54.0729
2988.00,55.0015
2990.00,55.0569
2992.00,54.1874
2994.00,52.9010
2996.00,51.3645
2998.00,50.0650
3000.00,49.7498
3002.00,50.3333
3004.00,49.9191
3006.00,50.4887
3008.00,50.5747
3010.00,51.0930
3012.00,51.1349
3014.00,51.2874
3016.00,50.8705
3018.00,51.6410
3020.00,51.9502
3022.00,52.2598
3024.00,52.0186
3026.00,52.4745
3028.00,53.1915
3030.00,53.1642
3032.00,52.5935
3034.00,52.6661
3036.00,52.9721
3038.00,52.8570
3040.00,52.7369
3042.00,52.1994
3044.00,51.8711
3046.00,51.7450
3048.00,51.5304
3050.00,52.1811
3052.00,52.7308
3054.00,52.5964
3056.00,52.4148
3058.00,52.9982
3060.00,54.5161
3062.00,54.1533
3064.00,53.4885
3066.00,53.4073
3068.00,52.8426
3070.00,52.3583
3072.00,52.3011
3074.00,52.7990
3076.00,52.2172
3078.00,51.6076
3080.00,52.1194
3082.00,53.3165
3084.00,53.4186
3086.00,53.1807
3088.00,53.1865
3090.00,53.6005
3092.00,52.5929
3094.00,52.7317
3096.00,52.2025
3098.00,51.5137
3100.00,49.9762
3102.00,50.7324
3104.00,51.3592
3106.00,51.3498
3108.00,50.8232
3110.00,51.6959
3112.00,52.0943
3114.00,52.4140
3116.00,53.3285
3118.00,53.9753
3120.00,53.2642
3122.00,53.8961
3124.00,53.5967
3126.00,53.2141
3128.00,52.0523
3130.00,50.5560
3132.00,49.9600
3134.00,49.4024
3136.00,49.1732
3138.00,48.9836
3140.00,47.5053
3142.00,47.8062
3144.00,47.4908
3146.00,48.6791
3148.00,48.9310
3150.00,48.2392
3152.00,48.0170
3154.00,49.2866
3156.00,48.8717
3158.00,49.9395
3160.00,50.1426
3162.00,49.5779
3164.00,51.4600
3166.00,53.3853
3168.00,54.9095
3170.00,57.0530
3172.00,56.6477
3174.00,59.4311
3176.00,59.6135
3178.00,59.3237
3180.00,60.5507
3182.00,57.9251
3184.00,57.0269
3186.00,58.1900
3188.00,55.3080
3190.00,55.2790
3192.00,53.3606
3194.00,53.3470
3196.00,52.7855
3198.00,52.6749
3200.00,55.9487
3202.00,55.2034
3204.00,53.3745
3206.00,58.0548
3208.00,58.9975
3210.00,61.0016
3212.00,60.9781
3214.00,63.5382
3216.00,64.6781
3218.00,62.1140
3220.00,62.0681
3222.00,68.2009
3224.00,62.6990
3226.00,61.3980
3228.00,58.4879
3230.00,57.8973
3232.00,55.2267
3234.00,59.4965
3236.00,58.8586
3238.00,63.2297
3240.00,54.6331
3242.00,63.8587
3244.00,73.2530
3246.00,77.2554
3248.00,80.6811
3250.00,79.0807
3252.00,83.1279
3254.00,84.7294
3256.00,89.5255
3258.00,92.2068
3260.00,95.7334
3262.00,89.0923
3264.00,82.8717
3266.00,76.3808
3268.00,81.4022
3270.00,69.6379
3272.00,76.2353
3274.00,74.4361
3276.00,81.4896
3278.00,69.0931
3280.00,65.0080
3282.00,102.4033
3284.00,126.1305
3286.00,122.8490
3288.00,130.1417
3290.00,119.6348
3292.00,115.7011
3294.00,111.7954
3296.00,116.2038
3298.00,120.3332
3300.00,88.7820
