"justHolder - RawData"
"Wavelength nm.","T%"
190.00, 
192.00, 
194.00, 
196.00, 
198.00, 
200.00, 
202.00, 
204.00, 
206.00, 
208.00, 
210.00, 
212.00, 
214.00, 
216.00, 
218.00, 
220.00, 
222.00, 
224.00, 
226.00, 
228.00, 
230.00, 
232.00, 
234.00, 
236.00, 
238.00, 
240.00, 
242.00, 
244.00, 
246.00, 
248.00, 
250.00, 
252.00, 
254.00, 
256.00, 
258.00, 
260.00, 
262.00, 
264.00, 
266.00, 
268.00, 
270.00, 
272.00, 
274.00, 
276.00, 
278.00, 
280.00, 
282.00, 
284.00, 
286.00, 
288.00, 
290.00, 
292.00, 
294.00, 
296.00, 
298.00, 
300.00,48.5769
302.00,48.6045
304.00,48.6208
306.00,48.5837
308.00,48.5371
310.00,48.5089
312.00,48.5162
314.00,48.5258
316.00,48.5336
318.00,48.5301
320.00,48.5393
322.00,48.5580
324.00,48.5852
326.00,48.6086
328.00,48.6114
330.00,48.5985
332.00,48.5917
334.00,48.6214
336.00,48.6587
338.00,48.6732
340.00,48.6691
342.00,48.6631
344.00,48.6800
346.00,48.6816
348.00,48.6714
350.00,48.6570
352.00,48.6383
354.00,48.6312
356.00,48.6221
358.00,48.6244
360.00,48.6539
362.00,48.6962
364.00,48.7398
366.00,48.7905
368.00,48.8355
370.00,48.8705
372.00,48.8657
374.00,48.8631
376.00,48.8594
378.00,48.8512
380.00,48.8354
382.00,48.8247
384.00,48.8216
386.00,48.8361
388.00,48.8529
390.00,48.8808
392.00,48.8903
394.00,48.9015
396.00,48.8921
398.00,48.8817
400.00,48.8712
402.00,48.8768
404.00,48.8856
406.00,48.8830
408.00,48.8670
410.00,48.8385
412.00,48.7965
414.00,48.7537
416.00,48.7216
418.00,48.7212
420.00,48.7649
422.00,48.8212
424.00,48.8868
426.00,48.9180
428.00,48.9426
430.00,48.9539
432.00,48.9705
434.00,48.9823
436.00,48.9914
438.00,48.9996
440.00,49.0084
442.00,49.0045
444.00,49.0216
446.00,49.0462
448.00,49.0866
450.00,49.1102
452.00,49.1476
454.00,49.1984
456.00,49.2498
458.00,49.2955
460.00,49.3530
462.00,49.4217
464.00,49.4341
466.00,49.3394
468.00,49.1195
470.00,48.7955
472.00,48.4275
474.00,48.0472
476.00,47.7856
478.00,47.6736
480.00,47.7268
482.00,47.8701
484.00,48.0356
486.00,48.1949
488.00,48.3140
490.00,48.4166
492.00,48.5007
494.00,48.5782
496.00,48.6466
498.00,48.7028
500.00,48.7421
502.00,48.7809
504.00,48.8064
506.00,48.8400
508.00,48.8557
510.00,48.8753
512.00,48.8949
514.00,48.9266
516.00,48.9515
518.00,48.9686
520.00,48.9762
522.00,48.9865
524.00,48.9968
526.00,49.0089
528.00,49.0278
530.00,49.0323
532.00,49.0216
534.00,49.0159
536.00,49.0247
538.00,49.0375
540.00,49.0400
542.00,49.0407
544.00,49.0422
546.00,49.0478
548.00,49.0481
550.00,49.0405
552.00,49.0215
554.00,49.0030
556.00,48.9710
558.00,48.9249
560.00,48.8723
562.00,48.8395
564.00,48.8127
566.00,48.7764
568.00,48.7380
570.00,48.7050
572.00,48.6972
574.00,48.7029
576.00,48.7181
578.00,48.7502
580.00,48.7838
582.00,48.8428
584.00,48.9007
586.00,48.9658
588.00,49.0217
590.00,49.0732
592.00,49.1200
594.00,49.1633
596.00,49.1983
598.00,49.2206
600.00,49.2469
602.00,49.2648
604.00,49.2703
606.00,49.2675
608.00,49.2686
610.00,49.2723
612.00,49.2678
614.00,49.2684
616.00,49.2692
618.00,49.2677
620.00,49.2672
622.00,49.2628
624.00,49.2795
626.00,49.2773
628.00,49.2784
630.00,49.2765
632.00,49.2722
634.00,49.2822
636.00,49.2710
638.00,49.2808
640.00,49.2804
642.00,49.2896
644.00,49.2976
646.00,49.3003
648.00,49.3129
650.00,49.3454
652.00,49.3989
654.00,49.4841
656.00,49.5390
658.00,49.5028
660.00,49.3196
662.00,49.0020
664.00,48.6203
666.00,48.1513
668.00,47.6818
670.00,47.3539
672.00,47.2893
674.00,47.4485
676.00,47.6909
678.00,47.9261
680.00,48.1226
682.00,48.2737
684.00,48.3934
686.00,48.4915
688.00,48.5711
690.00,48.6335
692.00,48.6752
694.00,48.7235
696.00,48.7558
698.00,48.7909
700.00,48.8006
702.00,48.8088
704.00,48.8222
706.00,48.8379
708.00,48.8621
710.00,48.8745
712.00,48.8912
714.00,48.9125
716.00,48.9284
718.00,48.9366
720.00,49.2270
722.00,49.5206
724.00,49.8054
726.00,49.7846
728.00,49.7649
730.00,49.7559
732.00,49.7550
734.00,49.7519
736.00,49.7616
738.00,49.7703
740.00,49.7980
742.00,49.8201
744.00,49.8611
746.00,49.8948
748.00,49.9357
750.00,49.9789
752.00,50.0271
754.00,50.0717
756.00,50.1143
758.00,50.1530
760.00,50.1857
762.00,50.2181
764.00,50.2509
766.00,50.2843
768.00,50.3203
770.00,50.3499
772.00,50.3858
774.00,50.4101
776.00,50.4357
778.00,50.4507
780.00,50.4664
782.00,50.4819
784.00,50.4975
786.00,50.5103
788.00,50.5239
790.00,50.5441
792.00,50.5737
794.00,50.5936
796.00,50.6125
798.00,50.6252
800.00,50.6536
802.00,50.6738
804.00,50.6890
806.00,50.6899
808.00,50.6963
810.00,50.7033
812.00,50.7072
814.00,50.7195
816.00,50.7421
818.00,50.7402
820.00,50.7353
822.00,50.7164
824.00,50.7378
826.00,50.7570
828.00,50.7916
830.00,51.1435
832.00,51.3404
834.00,51.6802
836.00,51.7008
838.00,51.7223
840.00,51.7456
842.00,51.7609
844.00,51.7727
846.00,51.7764
848.00,51.7835
850.00,51.7893
852.00,51.8047
854.00,51.8200
856.00,51.8377
858.00,51.8445
860.00,51.8628
862.00,51.8866
864.00,51.9080
866.00,51.9238
868.00,51.9461
870.00,51.9742
872.00,52.0043
874.00,52.0211
876.00,52.0540
878.00,52.0885
880.00,52.1150
882.00,52.1300
884.00,52.1393
886.00,52.1555
888.00,52.1698
890.00,52.1818
892.00,52.1909
894.00,52.2079
896.00,52.2122
898.00,52.2279
900.00,52.2177
902.00,52.2129
904.00,52.2035
906.00,52.2135
908.00,52.2270
910.00,52.2500
912.00,52.2674
914.00,52.2844
916.00,52.2926
918.00,52.3042
920.00,52.3184
922.00,52.3416
924.00,52.3604
926.00,52.3757
928.00,52.3819
930.00,52.3999
932.00,52.4168
934.00,52.4290
936.00,52.4351
938.00,52.4398
940.00,52.4476
942.00,52.4525
944.00,52.4657
946.00,52.4782
948.00,52.4966
950.00,52.5187
952.00,52.5418
954.00,52.5696
956.00,52.5909
958.00,52.6072
960.00,52.6240
962.00,52.6373
964.00,52.6509
966.00,52.6553
968.00,52.6586
970.00,52.6664
972.00,52.6697
974.00,52.6756
976.00,52.6759
978.00,52.6811
980.00,52.6887
982.00,52.6983
984.00,52.7092
986.00,52.7129
988.00,52.7161
990.00,52.7125
992.00,52.7146
994.00,52.7061
996.00,52.7101
998.00,52.7167
1000.00,52.7389
1002.00,52.7481
1004.00,52.7534
1006.00,52.7550
1008.00,52.7605
1010.00,52.7689
1012.00,52.7790
1014.00,52.7934
1016.00,52.8064
1018.00,52.8176
1020.00,52.8248
1022.00,52.8328
1024.00,52.8358
1026.00,52.8426
1028.00,52.8551
1030.00,52.8692
1032.00,52.8857
1034.00,52.8955
1036.00,52.9062
1038.00,52.9128
1040.00,52.9239
1042.00,52.9377
1044.00,52.9458
1046.00,52.9531
1048.00,52.9590
1050.00,52.9649
1052.00,52.9739
1054.00,52.9690
1056.00,52.9639
1058.00,52.9531
1060.00,52.9521
1062.00,52.9616
1064.00,52.9602
1066.00,52.9589
1068.00,52.9479
1070.00,52.9503
1072.00,52.9632
1074.00,52.9825
1076.00,52.9974
1078.00,53.0136
1080.00,53.0291
1082.00,53.0438
1084.00,53.0532
1086.00,53.0638
1088.00,53.0741
1090.00,53.0837
1092.00,53.0931
1094.00,53.1025
1096.00,53.1119
1098.00,53.1138
1100.00,53.1171
1102.00,53.1177
1104.00,53.1257
1106.00,53.1406
1108.00,53.1574
1110.00,53.1689
1112.00,53.1722
1114.00,53.1753
1116.00,53.1802
1118.00,53.1822
1120.00,53.1855
1122.00,53.1873
1124.00,53.1894
1126.00,53.1917
1128.00,53.1882
1130.00,53.1876
1132.00,53.1831
1134.00,53.1877
1136.00,53.1964
1138.00,53.2071
1140.00,53.2164
1142.00,53.2226
1144.00,53.2362
1146.00,53.2473
1148.00,53.2636
1150.00,53.2753
1152.00,53.2946
1154.00,53.3084
1156.00,53.3204
1158.00,53.3259
1160.00,53.3327
1162.00,53.3426
1164.00,53.3535
1166.00,53.3577
1168.00,53.3596
1170.00,53.3578
1172.00,53.3618
1174.00,53.3689
1176.00,53.3815
1178.00,53.3917
1180.00,53.3996
1182.00,53.4045
1184.00,53.4068
1186.00,53.4145
1188.00,53.4256
1190.00,53.4371
1192.00,53.4379
1194.00,53.4369
1196.00,53.4411
1198.00,53.4438
1200.00,53.4421
1202.00,53.4417
1204.00,53.4411
1206.00,53.4503
1208.00,53.4604
1210.00,53.4736
1212.00,53.4889
1214.00,53.5007
1216.00,53.5071
1218.00,53.5156
1220.00,53.5215
1222.00,53.5235
1224.00,53.5160
1226.00,53.5055
1228.00,53.5055
1230.00,53.5051
1232.00,53.5151
1234.00,53.5185
1236.00,53.5236
1238.00,53.5265
1240.00,53.5382
1242.00,53.5430
1244.00,53.5377
1246.00,53.5325
1248.00,53.5401
1250.00,53.5698
1252.00,53.6065
1254.00,53.6393
1256.00,53.6498
1258.00,53.6531
1260.00,53.6606
1262.00,53.6715
1264.00,53.6700
1266.00,53.6703
1268.00,53.6637
1270.00,53.6547
1272.00,53.6378
1274.00,53.6223
1276.00,53.6076
1278.00,53.5933
1280.00,53.5917
1282.00,53.6100
1284.00,53.6478
1286.00,53.6820
1288.00,53.7086
1290.00,53.7188
1292.00,53.7256
1294.00,53.7196
1296.00,53.7054
1298.00,53.7072
1300.00,53.7160
1302.00,53.7208
1304.00,53.6991
1306.00,53.6790
1308.00,53.6559
1310.00,53.6465
1312.00,53.6405
1314.00,53.6474
1316.00,53.6492
1318.00,53.6523
1320.00,53.6364
1322.00,53.6191
1324.00,53.5914
1326.00,53.5743
1328.00,53.5573
1330.00,53.5387
1332.00,53.5067
1334.00,53.4642
1336.00,53.4205
1338.00,53.3822
1340.00,53.3553
1342.00,53.3316
1344.00,53.3097
1346.00,53.2937
1348.00,53.2908
1350.00,53.2920
1352.00,53.3016
1354.00,53.3172
1356.00,53.3431
1358.00,53.3635
1360.00,53.3756
1362.00,53.3886
1364.00,53.3918
1366.00,53.3894
1368.00,53.3799
1370.00,53.3809
1372.00,53.3797
1374.00,53.3839
1376.00,53.3821
1378.00,53.3823
1380.00,53.3835
1382.00,53.3895
1384.00,53.3987
1386.00,53.4080
1388.00,53.4187
1390.00,53.4286
1392.00,53.4428
1394.00,53.4517
1396.00,53.4642
1398.00,53.4701
1400.00,53.4809
1402.00,53.4930
1404.00,53.5014
1406.00,53.5082
1408.00,53.5128
1410.00,53.5227
1412.00,53.5380
1414.00,53.5522
1416.00,53.5599
1418.00,53.5530
1420.00,53.5491
1422.00,53.5469
1424.00,53.5590
1426.00,53.5679
1428.00,53.5897
1430.00,53.6054
1432.00,53.6134
1434.00,53.6110
1436.00,53.6054
1438.00,53.6041
1440.00,53.6148
1442.00,53.6269
1444.00,53.6402
1446.00,53.6416
1448.00,53.6408
1450.00,53.6395
1452.00,53.6357
1454.00,53.6456
1456.00,53.6466
1458.00,53.6505
1460.00,53.6445
1462.00,53.6479
1464.00,53.6500
1466.00,53.6509
1468.00,53.6580
1470.00,53.6644
1472.00,53.6699
1474.00,53.6732
1476.00,53.6772
1478.00,53.6863
1480.00,53.6853
1482.00,53.6826
1484.00,53.6742
1486.00,53.6805
1488.00,53.6981
1490.00,53.7156
1492.00,53.7276
1494.00,53.7346
1496.00,53.7373
1498.00,53.7347
1500.00,53.7281
1502.00,53.7361
1504.00,53.7451
1506.00,53.7563
1508.00,53.7574
1510.00,53.7521
1512.00,53.7557
1514.00,53.7632
1516.00,53.7878
1518.00,53.7956
1520.00,53.7929
1522.00,53.7905
1524.00,53.7957
1526.00,53.8035
1528.00,53.8030
1530.00,53.8046
1532.00,53.8084
1534.00,53.8185
1536.00,53.8233
1538.00,53.8233
1540.00,53.8233
1542.00,53.8277
1544.00,53.8373
1546.00,53.8506
1548.00,53.8613
1550.00,53.8722
1552.00,53.8743
1554.00,53.8741
1556.00,53.8746
1558.00,53.8752
1560.00,53.8850
1562.00,53.8986
1564.00,53.9149
1566.00,53.9192
1568.00,53.9194
1570.00,53.9170
1572.00,53.9188
1574.00,53.9252
1576.00,53.9311
1578.00,53.9433
1580.00,53.9533
1582.00,53.9637
1584.00,53.9950
1586.00,54.0359
1588.00,54.0783
1590.00,54.0978
1592.00,54.1133
1594.00,54.1282
1596.00,54.1400
1598.00,54.1496
1600.00,54.1419
1602.00,54.1249
1604.00,54.0986
1606.00,54.0833
1608.00,54.0732
1610.00,54.0664
1612.00,54.0559
1614.00,54.0484
1616.00,54.0378
1618.00,54.0326
1620.00,54.0268
1622.00,54.0163
1624.00,54.0115
1626.00,54.0063
1628.00,54.0103
1630.00,54.0050
1632.00,54.0024
1634.00,53.9991
1636.00,54.0034
1638.00,54.0085
1640.00,54.0044
1642.00,53.9975
1644.00,53.9791
1646.00,53.9697
1648.00,53.9643
1650.00,53.5451
1652.00,53.1055
1654.00,52.1354
1656.00,51.8876
1658.00,51.5829
1660.00,52.1813
1662.00,52.3669
1664.00,52.7151
1666.00,52.4962
1668.00,52.2166
1670.00,51.3486
1672.00,51.5713
1674.00,52.1084
1676.00,52.7085
1678.00,52.7890
1680.00,52.7354
1682.00,52.6573
1684.00,52.3652
1686.00,52.0019
1688.00,52.4591
1690.00,52.5144
1692.00,52.4866
1694.00,52.3840
1696.00,52.0497
1698.00,52.3208
1700.00,51.9759
1702.00,52.1375
1704.00,51.7121
1706.00,52.0400
1708.00,52.1874
1710.00,52.4127
1712.00,52.1451
1714.00,52.1088
1716.00,51.7163
1718.00,51.7596
1720.00,51.9875
1722.00,52.1644
1724.00,52.2184
1726.00,52.0593
1728.00,51.9517
1730.00,51.6764
1732.00,51.8147
1734.00,51.6086
1736.00,51.8468
1738.00,51.5430
1740.00,51.6240
1742.00,51.8051
1744.00,51.6041
1746.00,51.8156
1748.00,51.4925
1750.00,51.7371
1752.00,51.5587
1754.00,51.4514
1756.00,51.2557
1758.00,52.0946
1760.00,52.2516
1762.00,52.2589
1764.00,51.7458
1766.00,51.6318
1768.00,51.6525
1770.00,51.5132
1772.00,51.3270
1774.00,51.5621
1776.00,51.9500
1778.00,51.8504
1780.00,51.8226
1782.00,51.6144
1784.00,52.3020
1786.00,52.4967
1788.00,52.7351
1790.00,52.8524
1792.00,52.5126
1794.00,51.7025
1796.00,51.0009
1798.00,50.1698
1800.00,50.0011
1802.00,50.3876
1804.00,51.4780
1806.00,52.5133
1808.00,52.4171
1810.00,52.4988
1812.00,52.2870
1814.00,52.3664
1816.00,52.2695
1818.00,52.6868
1820.00,52.4731
1822.00,52.6750
1824.00,52.3921
1826.00,52.2728
1828.00,51.6987
1830.00,51.5587
1832.00,51.6658
1834.00,52.0497
1836.00,52.5772
1838.00,52.7122
1840.00,52.5557
1842.00,51.9081
1844.00,52.2578
1846.00,52.7681
1848.00,53.0667
1850.00,53.1478
1852.00,52.5655
1854.00,51.7807
1856.00,51.1844
1858.00,51.5848
1860.00,51.8633
1862.00,52.7152
1864.00,52.3664
1866.00,52.9166
1868.00,52.2553
1870.00,52.1987
1872.00,51.8098
1874.00,51.5260
1876.00,51.4787
1878.00,51.3267
1880.00,51.0521
1882.00,51.1042
1884.00,51.3230
1886.00,51.6557
1888.00,51.4794
1890.00,51.1408
1892.00,51.2285
1894.00,50.8912
1896.00,51.1581
1898.00,51.1081
1900.00,51.2265
1902.00,51.1049
1904.00,51.5043
1906.00,51.5311
1908.00,51.6058
1910.00,50.9592
1912.00,51.1441
1914.00,51.1033
1916.00,51.2286
1918.00,50.9981
1920.00,50.6824
1922.00,50.7080
1924.00,51.0074
1926.00,51.0302
1928.00,51.2790
1930.00,51.1191
1932.00,51.5203
1934.00,51.1777
1936.00,51.1839
1938.00,51.3413
1940.00,51.4473
1942.00,51.8706
1944.00,51.5332
1946.00,51.4011
1948.00,50.9080
1950.00,50.9544
1952.00,50.8969
1954.00,50.9828
1956.00,50.8187
1958.00,51.0438
1960.00,51.6486
1962.00,51.4399
1964.00,51.7745
1966.00,51.0306
1968.00,51.4468
1970.00,50.6529
1972.00,50.2849
1974.00,50.2875
1976.00,51.2742
1978.00,51.5607
1980.00,51.5883
1982.00,50.6822
1984.00,51.4135
1986.00,51.2179
1988.00,51.8117
1990.00,51.4591
1992.00,51.3502
1994.00,50.7524
1996.00,50.9504
1998.00,51.0857
2000.00,51.8967
2002.00,51.7034
2004.00,51.3119
2006.00,50.8530
2008.00,50.9786
2010.00,51.0377
2012.00,50.0684
2014.00,49.8601
2016.00,51.2622
2018.00,52.2412
2020.00,52.6736
2022.00,51.3103
2024.00,51.2210
2026.00,50.9266
2028.00,51.0424
2030.00,51.4272
2032.00,50.6588
2034.00,51.1733
2036.00,51.0332
2038.00,50.9644
2040.00,50.5391
2042.00,49.8784
2044.00,51.0898
2046.00,50.7151
2048.00,50.5718
2050.00,50.1887
2052.00,49.9759
2054.00,51.4157
2056.00,51.1329
2058.00,51.7439
2060.00,50.0032
2062.00,49.6554
2064.00,49.8379
2066.00,50.5574
2068.00,51.5792
2070.00,51.6789
2072.00,51.2554
2074.00,50.5834
2076.00,50.5658
2078.00,51.7259
2080.00,52.4188
2082.00,52.8037
2084.00,51.7874
2086.00,50.3606
2088.00,49.4949
2090.00,49.2611
2092.00,49.9173
2094.00,50.1200
2096.00,51.5761
2098.00,51.7932
2100.00,51.1541
2102.00,49.6805
2104.00,48.6339
2106.00,49.4203
2108.00,50.3261
2110.00,51.0537
2112.00,50.9142
2114.00,50.8041
2116.00,50.8209
2118.00,50.1202
2120.00,49.1075
2122.00,49.4720
2124.00,50.3406
2126.00,50.9669
2128.00,50.6933
2130.00,51.1216
2132.00,51.3463
2134.00,51.7750
2136.00,50.7864
2138.00,51.2216
2140.00,50.0789
2142.00,50.0728
2144.00,49.6058
2146.00,50.6342
2148.00,50.2117
2150.00,49.2699
2152.00,47.9999
2154.00,48.4803
2156.00,50.3615
2158.00,51.6431
2160.00,52.9192
2162.00,51.9591
2164.00,52.0999
2166.00,51.1550
2168.00,51.6065
2170.00,52.2248
2172.00,52.5227
2174.00,52.1842
2176.00,51.1207
2178.00,50.7998
2180.00,52.2746
2182.00,52.1344
2184.00,52.3702
2186.00,50.9453
2188.00,51.0225
2190.00,51.8583
2192.00,52.6298
2194.00,53.3741
2196.00,52.6575
2198.00,51.2016
2200.00,50.7871
2202.00,50.3963
2204.00,52.1884
2206.00,52.1490
2208.00,51.3166
2210.00,51.4772
2212.00,50.0973
2214.00,51.1405
2216.00,50.6155
2218.00,51.4845
2220.00,51.0269
2222.00,50.0652
2224.00,50.6655
2226.00,51.0704
2228.00,50.7736
2230.00,50.0620
2232.00,50.1015
2234.00,49.5071
2236.00,48.8129
2238.00,48.3653
2240.00,48.1668
2242.00,49.2546
2244.00,48.6166
2246.00,49.0861
2248.00,49.3735
2250.00,48.4827
2252.00,47.9402
2254.00,47.1880
2256.00,48.7721
2258.00,49.7694
2260.00,49.7541
2262.00,49.7452
2264.00,48.6645
2266.00,49.2304
2268.00,48.8159
2270.00,48.7704
2272.00,47.2441
2274.00,47.2950
2276.00,47.6130
2278.00,48.5864
2280.00,48.3742
2282.00,48.6829
2284.00,47.8777
2286.00,48.1831
2288.00,47.8844
2290.00,48.5374
2292.00,49.5070
2294.00,49.8451
2296.00,48.9363
2298.00,47.4692
2300.00,47.8009
2302.00,48.9440
2304.00,49.9619
2306.00,49.9171
2308.00,49.4601
2310.00,48.9511
2312.00,48.9095
2314.00,49.0784
2316.00,49.4044
2318.00,49.3115
2320.00,49.3185
2322.00,49.7566
2324.00,50.3397
2326.00,49.9480
2328.00,50.0596
2330.00,49.0983
2332.00,50.5689
2334.00,49.6841
2336.00,49.9311
2338.00,49.2532
2340.00,49.1006
2342.00,49.4146
2344.00,49.6661
2346.00,49.7454
2348.00,50.4657
2350.00,49.9838
2352.00,50.6661
2354.00,50.9141
2356.00,51.1170
2358.00,50.5469
2360.00,48.7707
2362.00,48.8498
2364.00,48.7430
2366.00,50.5970
2368.00,50.4234
2370.00,50.0882
2372.00,49.3481
2374.00,49.5720
2376.00,50.7626
2378.00,51.0523
2380.00,51.0673
2382.00,49.5829
2384.00,47.9768
2386.00,47.4238
2388.00,47.7154
2390.00,48.6176
2392.00,48.0140
2394.00,49.1396
2396.00,49.3908
2398.00,50.7747
2400.00,49.4580
2402.00,49.2434
2404.00,46.9470
2406.00,48.4403
2408.00,48.8821
2410.00,52.0515
2412.00,51.4523
2414.00,52.8587
2416.00,51.3177
2418.00,53.1393
2420.00,50.3424
2422.00,51.0247
2424.00,49.9990
2426.00,51.1235
2428.00,50.1006
2430.00,49.7028
2432.00,49.9246
2434.00,50.6049
2436.00,50.0455
2438.00,49.5292
2440.00,48.3414
2442.00,47.8122
2444.00,49.1115
2446.00,49.9942
2448.00,51.3755
2450.00,51.1466
2452.00,51.2951
2454.00,51.1173
2456.00,49.9446
2458.00,49.1725
2460.00,48.3160
2462.00,48.3583
2464.00,50.6276
2466.00,50.9559
2468.00,50.1929
2470.00,48.4214
2472.00,47.4649
2474.00,47.3484
2476.00,48.5819
2478.00,49.3208
2480.00,49.8168
2482.00,49.6369
2484.00,49.9016
2486.00,51.5495
2488.00,51.2162
2490.00,51.9100
2492.00,49.0586
2494.00,45.6226
2496.00,45.4141
2498.00,47.3292
2500.00,50.8796
2502.00,50.5446
2504.00,50.6733
2506.00,50.0994
2508.00,49.7804
2510.00,49.8027
2512.00,50.4445
2514.00,50.2958
2516.00,50.3823
2518.00,49.6919
2520.00,49.0110
2522.00,49.9230
2524.00,51.6758
2526.00,51.7840
2528.00,50.3633
2530.00,49.1487
2532.00,50.9543
2534.00,51.5643
2536.00,51.4386
2538.00,51.3324
2540.00,50.9268
2542.00,51.7146
2544.00,51.4954
2546.00,51.8129
2548.00,50.4416
2550.00,49.8451
2552.00,49.9458
2554.00,50.1019
2556.00,49.2007
2558.00,49.0630
2560.00,49.4612
2562.00,49.0564
2564.00,50.5721
2566.00,50.0302
2568.00,51.3176
2570.00,50.3608
2572.00,51.5735
2574.00,49.4138
2576.00,49.1438
2578.00,48.3466
2580.00,50.3781
2582.00,51.3562
2584.00,49.8483
2586.00,47.9064
2588.00,47.3424
2590.00,46.3558
2592.00,48.6842
2594.00,47.9987
2596.00,50.1911
2598.00,50.3112
2600.00,49.7008
2602.00,49.7797
2604.00,49.3864
2606.00,50.3724
2608.00,51.0047
2610.00,49.7193
2612.00,47.6071
2614.00,45.7558
2616.00,50.5330
2618.00,50.3628
2620.00,52.2674
2622.00,48.1144
2624.00,48.5527
2626.00,48.6901
2628.00,50.7467
2630.00,51.8181
2632.00,51.2078
2634.00,51.5683
2636.00,52.3357
2638.00,53.3271
2640.00,51.2752
2642.00,51.1973
2644.00,50.4125
2646.00,51.1839
2648.00,50.8456
2650.00,51.1358
2652.00,50.6253
2654.00,50.4437
2656.00,51.3505
2658.00,52.2943
2660.00,53.1872
2662.00,52.0895
2664.00,51.4122
2666.00,49.1270
2668.00,48.0025
2670.00,46.2266
2672.00,46.6634
2674.00,44.4810
2676.00,47.4174
2678.00,49.4339
2680.00,52.5267
2682.00,50.0766
2684.00,49.6946
2686.00,47.7664
2688.00,51.6432
2690.00,50.5674
2692.00,52.7024
2694.00,48.3733
2696.00,48.9318
2698.00,45.6530
2700.00,47.7552
2702.00,49.0362
2704.00,49.1165
2706.00,51.1679
2708.00,50.2749
2710.00,50.3578
2712.00,49.4926
2714.00,49.1545
2716.00,48.8701
2718.00,49.5656
2720.00,49.3984
2722.00,49.8924
2724.00,50.4930
2726.00,50.8798
2728.00,50.2111
2730.00,50.1499
2732.00,50.2327
2734.00,50.0149
2736.00,49.8073
2738.00,50.1033
2740.00,50.4126
2742.00,50.6301
2744.00,50.6512
2746.00,50.3359
2748.00,51.0365
2750.00,50.1182
2752.00,49.2502
2754.00,49.6108
2756.00,49.6430
2758.00,49.4030
2760.00,49.4798
2762.00,50.6685
2764.00,49.8217
2766.00,50.2193
2768.00,49.9626
2770.00,51.0142
2772.00,50.0735
2774.00,50.7552
2776.00,51.1059
2778.00,51.2487
2780.00,50.9001
2782.00,51.3976
2784.00,51.3177
2786.00,50.9234
2788.00,50.3998
2790.00,50.1702
2792.00,50.0935
2794.00,49.9806
2796.00,49.3769
2798.00,49.1893
2800.00,49.6784
2802.00,49.8563
2804.00,50.4490
2806.00,51.3385
2808.00,51.4005
2810.00,51.1303
2812.00,50.5912
2814.00,50.0457
2816.00,50.1156
2818.00,50.6868
2820.00,50.4321
2822.00,50.3224
2824.00,50.0243
2826.00,49.5604
2828.00,49.6636
2830.00,50.1914
2832.00,51.0108
2834.00,51.1629
2836.00,50.9873
2838.00,51.2902
2840.00,50.1760
2842.00,50.0685
2844.00,50.7458
2846.00,50.1366
2848.00,49.7055
2850.00,50.8819
2852.00,51.2871
2854.00,50.5357
2856.00,51.3092
2858.00,51.0400
2860.00,50.3924
2862.00,50.5544
2864.00,50.2230
2866.00,49.4230
2868.00,50.0530
2870.00,50.3861
2872.00,50.2427
2874.00,50.7376
2876.00,51.3920
2878.00,50.7532
2880.00,50.9683
2882.00,49.9432
2884.00,50.0793
2886.00,50.0560
2888.00,50.5425
2890.00,49.5309
2892.00,50.1976
2894.00,49.7146
2896.00,49.7553
2898.00,49.1832
2900.00,50.4412
2902.00,50.0202
2904.00,50.9527
2906.00,50.5067
2908.00,51.5797
2910.00,51.4155
2912.00,51.6734
2914.00,50.8849
2916.00,50.6812
2918.00,49.7773
2920.00,48.8414
2922.00,48.1910
2924.00,47.4599
2926.00,48.5178
2928.00,48.9297
2930.00,49.9460
2932.00,50.7320
2934.00,50.5648
2936.00,51.3098
2938.00,50.2413
2940.00,49.0586
2942.00,48.3100
2944.00,49.7465
2946.00,48.5791
2948.00,49.1661
2950.00,50.3818
2952.00,51.4630
2954.00,51.3373
2956.00,51.5987
2958.00,52.1301
2960.00,52.0557
2962.00,50.0930
2964.00,49.9128
2966.00,49.1666
2968.00,50.8477
2970.00,49.7353
2972.00,52.3583
2974.00,52.1186
2976.00,52.4957
2978.00,51.2585
2980.00,52.6363
2982.00,49.8457
2984.00,49.7025
2986.00,50.1014
2988.00,50.7725
2990.00,50.9322
2992.00,52.9609
2994.00,53.2404
2996.00,54.7163
2998.00,55.0162
3000.00,55.8912
3002.00, 
3004.00, 
3006.00, 
3008.00, 
3010.00, 
3012.00, 
3014.00, 
3016.00, 
3018.00, 
3020.00, 
3022.00, 
3024.00, 
3026.00, 
3028.00, 
3030.00, 
3032.00, 
3034.00, 
3036.00, 
3038.00, 
3040.00, 
3042.00, 
3044.00, 
3046.00, 
3048.00, 
3050.00, 
3052.00, 
3054.00, 
3056.00, 
3058.00, 
3060.00, 
3062.00, 
3064.00, 
3066.00, 
3068.00, 
3070.00, 
3072.00, 
3074.00, 
3076.00, 
3078.00, 
3080.00, 
3082.00, 
3084.00, 
3086.00, 
3088.00, 
3090.00, 
3092.00, 
3094.00, 
3096.00, 
3098.00, 
3100.00, 
3102.00, 
3104.00, 
3106.00, 
3108.00, 
3110.00, 
3112.00, 
3114.00, 
3116.00, 
3118.00, 
3120.00, 
3122.00, 
3124.00, 
3126.00, 
3128.00, 
3130.00, 
3132.00, 
3134.00, 
3136.00, 
3138.00, 
3140.00, 
3142.00, 
3144.00, 
3146.00, 
3148.00, 
3150.00, 
3152.00, 
3154.00, 
3156.00, 
3158.00, 
3160.00, 
3162.00, 
3164.00, 
3166.00, 
3168.00, 
3170.00, 
3172.00, 
3174.00, 
3176.00, 
3178.00, 
3180.00, 
3182.00, 
3184.00, 
3186.00, 
3188.00, 
3190.00, 
3192.00, 
3194.00, 
3196.00, 
3198.00, 
3200.00, 
3202.00, 
3204.00, 
3206.00, 
3208.00, 
3210.00, 
3212.00, 
3214.00, 
3216.00, 
3218.00, 
3220.00, 
3222.00, 
3224.00, 
3226.00, 
3228.00, 
3230.00, 
3232.00, 
3234.00, 
3236.00, 
3238.00, 
3240.00, 
3242.00, 
3244.00, 
3246.00, 
3248.00, 
3250.00, 
3252.00, 
3254.00, 
3256.00, 
3258.00, 
3260.00, 
3262.00, 
3264.00, 
3266.00, 
3268.00, 
3270.00, 
3272.00, 
3274.00, 
3276.00, 
3278.00, 
3280.00, 
3282.00, 
3284.00, 
3286.00, 
3288.00, 
3290.00, 
3292.00, 
3294.00, 
3296.00, 
3298.00, 
3300.00, 
